%OpenBCI Raw EEG Data
%Sample Rate = 250.0 Hz
%First Column = SampleIndex
%Other Columns = EEG data in microvolts followed by Accel Data (in G) interleaved with Aux Data
0, -143685.86, -144635.05, -143497.44, -143545.05, -143638.20, -143762.80, -144092.22, 54687.41, 0.02, -0.01, 1.04, 1486242222853
1, -143697.48, -144624.09, -143497.05, -143547.50, -143640.03, -143765.67, -144084.34, 54682.49, 0.00, 0.00, 0.00, 1486242222857
2, -143702.00, -144597.41, -143494.47, -143555.39, -143651.89, -143810.83, -144061.09, 54691.39, 0.00, 0.00, 0.00, 1486242222861
3, -143699.61, -144570.11, -143490.61, -143546.75, -143643.91, -143770.34, -144037.83, 54700.50, 0.00, 0.00, 0.00, 1486242222865
4, -143684.34, -144560.89, -143490.94, -143544.84, -143640.48, -143746.03, -144031.58, 54693.00, 0.00, 0.00, 0.00, 1486242222869
5, -143694.48, -144550.11, -143495.80, -143549.41, -143648.59, -143782.86, -144028.48, 54691.34, 0.00, 0.00, 0.00, 1486242222872
6, -143715.25, -144511.67, -143497.17, -143565.45, -143652.00, -143840.11, -144114.47, 54722.48, 0.00, 0.00, 0.00, 1486242222877
7, -143698.27, -144474.20, -143493.75, -143550.83, -143644.17, -143816.17, -144195.05, 54748.63, 0.02, -0.02, 1.03, 1486242222882
8, -143681.92, -144458.05, -143489.48, -143535.59, -143629.75, -143744.00, -144187.91, 54748.83, 0.00, 0.00, 0.00, 1486242222885
9, -143681.13, -144449.97, -143494.22, -143540.13, -143631.80, -143748.91, -144183.08, 54739.82, 0.00, 0.00, 0.00, 1486242222889
10, -143691.69, -144429.30, -143489.67, -143542.09, -143635.81, -143787.69, -144164.75, 54745.07, 0.00, 0.00, 0.00, 1486242222893
11, -143694.94, -144399.55, -143489.45, -143545.69, -143635.80, -143792.88, -144138.39, 54758.93, 0.00, 0.00, 0.00, 1486242222896
12, -143677.44, -144383.97, -143486.44, -143531.75, -143625.02, -143747.66, -144126.86, 54758.93, 0.00, 0.00, 0.00, 1486242222900
13, -143676.38, -144378.05, -143486.55, -143535.52, -143625.33, -143733.14, -144124.73, 54749.66, 0.00, 0.00, 0.00, 1486242222904
14, -143695.11, -144358.42, -143493.45, -143544.22, -143638.91, -143791.03, -144107.97, 54754.46, 0.00, 0.00, 0.00, 1486242222908
15, -143699.72, -144326.80, -143492.06, -143546.47, -143644.73, -143821.33, -144079.50, 54769.73, 0.00, 0.00, 0.00, 1486242222914
16, -143682.22, -144305.73, -143488.83, -143536.02, -143628.22, -143752.16, -144061.33, 54775.25, 0.00, 0.00, 0.00, 1486242222918
17, -143675.13, -144299.86, -143486.66, -143534.94, -143622.61, -143721.75, -144058.38, 54767.36, 0.01, -0.02, 1.03, 1486242222921
18, -143689.17, -144284.06, -143488.97, -143541.17, -143634.67, -143778.31, -144045.56, 54768.61, 0.00, 0.00, 0.00, 1486242222925
19, -143702.28, -144250.00, -143489.52, -143545.17, -143639.44, -143820.66, -144031.94, 54789.69, 0.00, 0.00, 0.00, 1486242222928
20, -143694.23, -144216.41, -143491.63, -143540.80, -143638.88, -143798.20, -144146.50, 54817.16, 0.00, 0.00, 0.00, 1486242222932
21, -143676.61, -144204.64, -143484.97, -143525.64, -143626.81, -143737.09, -144208.11, 54815.19, 0.00, 0.00, 0.00, 1486242222936
22, -143678.44, -144191.56, -143482.92, -143533.73, -143632.39, -143756.78, -144198.97, 54812.04, 0.00, 0.00, 0.00, 1486242222941
23, -143688.91, -144161.97, -143485.83, -143542.61, -143631.55, -143790.47, -144173.47, 54823.80, 0.00, 0.00, 0.00, 1486242222945
24, -143675.36, -144135.86, -143477.41, -143526.48, -143620.19, -143759.17, -144150.91, 54833.43, 0.00, 0.00, 0.00, 1486242222948
25, -143666.39, -144126.48, -143475.48, -143527.83, -143622.11, -143735.61, -144143.98, 54826.32, 0.00, 0.00, 0.00, 1486242222953
26, -143670.28, -144115.92, -143481.03, -143530.17, -143619.55, -143729.47, -144136.81, 54819.62, 0.00, 0.00, 0.00, 1486242222956
27, -143684.03, -144089.38, -143477.55, -143531.13, -143633.78, -143791.22, -144113.83, 54829.99, 0.02, -0.01, 1.03, 1486242222960
28, -143673.31, -144063.77, -143473.52, -143526.11, -143623.19, -143763.02, -144091.81, 54841.55, 0.00, 0.00, 0.00, 1486242222964
29, -143667.22, -144053.59, -143474.34, -143525.00, -143614.80, -143717.63, -144084.55, 54838.30, 0.00, 0.00, 0.00, 1486242222970
30, -143667.33, -144045.52, -143477.09, -143528.50, -143616.03, -143735.30, -144079.41, 54831.13, 0.00, 0.00, 0.00, 1486242222974
31, -143682.31, -144020.47, -143478.91, -143529.53, -143626.69, -143786.36, -144057.25, 54840.81, 0.00, 0.00, 0.00, 1486242222976
32, -143677.98, -143989.34, -143476.83, -143530.78, -143625.44, -143783.67, -144030.48, 54855.96, 0.00, 0.00, 0.00, 1486242222981
33, -143663.63, -143974.44, -143473.70, -143529.08, -143612.72, -143734.66, -144017.72, 54855.89, 0.00, 0.00, 0.00, 1486242222984
34, -143664.52, -143966.84, -143472.27, -143526.00, -143613.22, -143723.48, -144011.25, 54848.63, 0.00, 0.00, 0.00, 1486242222988
35, -143696.59, -143936.88, -143480.06, -143540.11, -143638.97, -143837.11, -144033.05, 54868.08, 0.00, 0.00, 0.00, 1486242222992
36, -143685.28, -143892.97, -143473.98, -143531.81, -143628.38, -143794.13, -144162.06, 54907.06, 0.00, 0.00, 0.00, 1486242222996
37, -143660.89, -143875.25, -143467.14, -143515.94, -143615.39, -143749.45, -144192.70, 54909.32, 0.02, -0.02, 1.03, 1486242223002
38, -143657.94, -143867.00, -143469.39, -143525.17, -143614.09, -143725.98, -144187.14, 54899.68, 0.00, 0.00, 0.00, 1486242223005
39, -143672.58, -143848.69, -143471.58, -143529.84, -143617.80, -143750.70, -144171.55, 54903.37, 0.00, 0.00, 0.00, 1486242223008
40, -143683.17, -143815.72, -143472.17, -143529.52, -143625.44, -143795.19, -144142.34, 54920.80, 0.00, 0.00, 0.00, 1486242223013
41, -143659.50, -143793.44, -143472.80, -143521.48, -143611.81, -143735.55, -144123.31, 54927.58, 0.00, 0.00, 0.00, 1486242223016
42, -143647.30, -143786.95, -143471.19, -143514.56, -143608.61, -143708.59, -144119.39, 54919.62, 0.00, 0.00, 0.00, 1486242223020
43, -143658.44, -143773.48, -143465.83, -143518.00, -143611.30, -143746.77, -144108.70, 54918.86, 0.00, 0.00, 0.00, 1486242223024
44, -143661.41, -143745.83, -143464.06, -143523.42, -143617.42, -143768.45, -144084.97, 54930.62, 0.00, 0.00, 0.00, 1486242223029
45, -143647.13, -143723.80, -143464.39, -143519.63, -143611.31, -143744.27, -144067.52, 54936.50, 0.00, 0.00, 0.00, 1486242223033
46, -143640.84, -143716.38, -143462.50, -143514.05, -143602.05, -143712.45, -144062.73, 54927.98, 0.00, 0.00, 0.00, 1486242223037
47, -143648.20, -143604.55, -143461.97, -143514.58, -143606.22, -143730.41, -144053.17, 54923.24, 0.01, -0.02, 1.04, 1486242223040
48, -143703.89, -143186.55, -143463.02, -143532.89, -143631.23, -143854.17, -144014.03, 54950.27, 0.00, 0.00, 0.00, 1486242223044
49, -143703.55, -143208.00, -143464.64, -143539.19, -143633.33, -143869.61, -144030.50, 55002.90, 0.00, 0.00, 0.00, 1486242223049
50, -143672.00, -143394.50, -143458.47, -143516.28, -143612.61, -143783.88, -144148.39, 55043.32, 0.00, 0.00, 0.00, 1486242223052
51, -143679.06, -143596.14, -143455.48, -143517.08, -143612.44, -143800.95, -144142.02, 55065.24, 0.00, 0.00, 0.00, 1486242223057
52, -143691.98, -143777.80, -143459.80, -143528.41, -143624.45, -143857.36, -144093.13, 55102.66, 0.00, 0.00, 0.00, 1486242223060
53, -143670.91, -143959.22, -143449.63, -143516.61, -143608.98, -143802.89, -144043.84, 55141.42, 0.00, 0.00, 0.00, 1486242223064
54, -143655.80, -144185.52, -143446.78, -143507.94, -143601.23, -143761.41, -144011.41, 55165.09, 0.00, 0.00, 0.00, 1486242223069
55, -143661.73, -144729.16, -143445.16, -143507.16, -143602.16, -143775.16, -143985.81, 55181.61, 0.00, 0.00, 0.00, 1486242223072
56, -143675.47, -145013.91, -143450.41, -143515.11, -143610.22, -143820.34, -144039.63, 55216.94, 0.00, 0.00, 0.00, 1486242223077
57, -143644.69, -144980.36, -143438.92, -143492.31, -143586.94, -143731.86, -144146.28, 55246.71, 0.01, -0.02, 1.04, 1486242223080
58, -143634.19, -144964.83, -143435.92, -143486.59, -143586.39, -143709.53, -144147.73, 55245.17, 0.00, 0.00, 0.00, 1486242223086
59, -143631.98, -144954.50, -143440.39, -143493.55, -143586.17, -143694.94, -144141.02, 55238.49, 0.00, 0.00, 0.00, 1486242223088
60, -143643.34, -144932.78, -143441.63, -143498.91, -143591.13, -143739.45, -144125.00, 55242.29, 0.00, 0.00, 0.00, 1486242223092
61, -143644.55, -144900.61, -143439.61, -143492.86, -143595.20, -143748.36, -144097.75, 55257.15, 0.00, 0.00, 0.00, 1486242223097
62, -143624.30, -144884.00, -143433.86, -143486.22, -143578.11, -143689.09, -144084.97, 55259.16, 0.00, 0.00, 0.00, 1486242223100
63, -143626.69, -144877.59, -143435.36, -143490.42, -143576.61, -143690.36, -144080.84, 55251.19, 0.00, 0.00, 0.00, 1486242223105
64, -143640.67, -144857.16, -143438.47, -143494.53, -143584.38, -143736.53, -144062.91, 55255.19, 0.00, 0.00, 0.00, 1486242223109
65, -143642.19, -144826.36, -143432.61, -143488.84, -143583.52, -143742.50, -144037.00, 55269.71, 0.00, 0.00, 0.00, 1486242223113
66, -143628.11, -144804.59, -143438.20, -143487.17, -143575.06, -143714.78, -144019.64, 55274.19, 0.00, 0.00, 0.00, 1486242223116
67, -143617.23, -144798.03, -143435.81, -143475.38, -143567.22, -143666.14, -144015.61, 55265.29, 0.02, -0.01, 1.04, 1486242223120
68, -143632.95, -144784.78, -143435.20, -143488.47, -143577.86, -143725.22, -144005.27, 55263.50, 0.00, 0.00, 0.00, 1486242223125
69, -143647.42, -144752.16, -143435.59, -143493.80, -143585.75, -143758.91, -143978.17, 55279.59, 0.00, 0.00, 0.00, 1486242223128
70, -143639.77, -144716.88, -143430.89, -143486.70, -143586.86, -143751.13, -144048.30, 55305.21, 0.00, 0.00, 0.00, 1486242223133
71, -143622.98, -144699.38, -143427.42, -143480.41, -143571.70, -143683.64, -144149.17, 55313.05, 0.00, 0.00, 0.00, 1486242223136
72, -143633.27, -144683.69, -143431.91, -143489.25, -143579.72, -143723.55, -144143.53, 55312.45, 0.00, 0.00, 0.00, 1486242223141
73, -143645.67, -144651.70, -143435.47, -143490.95, -143587.58, -143768.11, -144115.81, 55327.23, 0.00, 0.00, 0.00, 1486242223145
74, -143616.86, -144625.38, -143432.38, -143481.88, -143571.78, -143701.80, -144093.11, 55337.64, 0.00, 0.00, 0.00, 1486242223147
75, -143606.64, -144619.30, -143426.83, -143470.59, -143561.47, -143655.03, -144089.69, 55328.88, 0.00, 0.00, 0.00, 1486242223152
76, -143624.39, -144611.53, -143430.14, -143476.42, -143567.50, -143682.84, -144085.31, 55319.71, 0.00, 0.00, 0.00, 1486242223156
77, -143640.06, -144583.95, -143429.58, -143492.98, -143579.83, -143752.48, -144061.66, 55330.63, 0.02, -0.01, 1.04, 1486242223161
78, -143629.67, -144553.95, -143429.27, -143484.58, -143570.75, -143710.78, -144035.89, 55343.90, 0.00, 0.00, 0.00, 1486242223164
79, -143612.44, -144542.83, -143426.11, -143472.13, -143565.36, -143675.78, -144027.81, 55340.35, 0.00, 0.00, 0.00, 1486242223169
80, -143621.20, -144532.20, -143427.05, -143483.13, -143573.88, -143706.20, -144019.64, 55337.13, 0.00, 0.00, 0.00, 1486242223173
81, -143633.09, -144507.36, -143426.02, -143488.27, -143573.28, -143726.50, -143997.69, 55346.96, 0.00, 0.00, 0.00, 1486242223176
82, -143640.48, -144476.03, -143429.11, -143483.53, -143591.25, -143770.22, -143969.77, 55363.32, 0.00, 0.00, 0.00, 1486242223181
83, -143617.06, -144460.08, -143421.38, -143464.27, -143575.84, -143678.84, -143957.75, 55363.10, 0.00, 0.00, 0.00, 1486242223185
84, -143613.19, -144454.17, -143424.14, -143468.52, -143570.28, -143664.36, -143955.47, 55351.97, 0.00, 0.00, 0.00, 1486242223189
85, -143639.70, -144425.70, -143426.28, -143485.66, -143584.16, -143763.42, -143990.31, 55369.18, 0.00, 0.00, 0.00, 1486242223193
86, -143638.19, -144381.53, -143423.19, -143479.47, -143576.34, -143748.22, -144112.95, 55407.18, 0.00, 0.00, 0.00, 1486242223198
87, -143613.28, -144361.55, -143421.73, -143465.25, -143562.44, -143683.17, -144128.63, 55411.63, 0.01, -0.01, 1.04, 1486242223201
88, -143609.31, -144351.92, -143424.13, -143462.00, -143558.97, -143679.27, -144121.67, 55404.25, 0.00, 0.00, 0.00, 1486242223204
89, -143620.17, -144334.59, -143418.38, -143468.06, -143565.14, -143711.27, -144107.56, 55405.21, 0.00, 0.00, 0.00, 1486242223209
90, -143624.23, -144304.63, -143420.86, -143479.86, -143568.31, -143733.94, -144080.44, 55419.23, 0.00, 0.00, 0.00, 1486242223212
91, -143617.03, -144282.72, -143423.34, -143477.30, -143562.20, -143707.83, -144061.66, 55425.33, 0.00, 0.00, 0.00, 1486242223216
92, -143608.05, -144277.13, -143421.69, -143465.05, -143552.20, -143653.73, -144058.02, 55415.80, 0.00, 0.00, 0.00, 1486242223220
93, -143611.50, -144265.11, -143415.94, -143470.67, -143557.09, -143683.61, -144049.44, 55409.97, 0.00, 0.00, 0.00, 1486242223224
94, -143625.80, -144233.88, -143419.20, -143472.58, -143569.23, -143748.56, -144022.70, 55422.96, 0.00, 0.00, 0.00, 1486242223229
95, -143608.59, -144210.23, -143415.02, -143461.92, -143553.84, -143680.05, -144001.63, 55431.36, 0.00, 0.00, 0.00, 1486242223231
96, -143596.97, -144202.44, -143408.92, -143457.88, -143545.38, -143648.52, -143996.03, 55424.57, 0.00, 0.00, 0.00, 1486242223235
97, -143616.59, -144188.48, -143415.36, -143468.94, -143560.52, -143715.39, -143985.73, 55422.47, 0.01, -0.01, 1.04, 1486242223240
98, -143622.05, -144157.81, -143416.63, -143471.89, -143566.91, -143722.06, -143958.08, 55437.22, 0.00, 0.00, 0.00, 1486242223244
99, -143618.64, -144122.97, -143410.89, -143472.98, -143574.03, -143723.59, -143993.59, 55461.96, 0.00, 0.00, 0.00, 1486242223249
100, -143598.59, -144104.53, -143407.63, -143458.78, -143557.05, -143667.17, -144116.64, 55470.79, 0.00, 0.00, 0.00, 1486242223252
101, -143604.33, -144093.25, -143413.13, -143463.80, -143555.23, -143692.70, -144126.38, 55465.65, 0.00, 0.00, 0.00, 1486242223255
102, -143617.23, -144066.28, -143409.14, -143467.27, -143561.61, -143726.09, -144103.19, 55475.44, 0.00, 0.00, 0.00, 1486242223259
103, -143609.14, -144037.81, -143406.27, -143464.69, -143554.98, -143715.67, -144077.42, 55487.93, 0.00, 0.00, 0.00, 1486242223268
104, -143595.41, -144025.16, -143406.91, -143456.22, -143539.67, -143647.66, -144066.91, 55486.53, 0.00, 0.00, 0.00, 1486242223268
105, -143596.63, -144017.72, -143408.88, -143456.16, -143546.61, -143665.08, -144061.81, 55479.69, 0.00, 0.00, 0.00, 1486242223273
106, -143611.66, -143994.05, -143405.14, -143463.69, -143554.86, -143700.55, -144041.70, 55488.09, 0.00, 0.00, 0.00, 1486242223277
107, -143606.75, -143965.50, -143400.36, -143457.94, -143553.22, -143706.13, -144016.80, 55501.14, 0.01, -0.01, 1.05, 1486242223280
108, -143594.39, -143952.53, -143401.14, -143451.02, -143538.58, -143648.06, -144007.39, 55495.47, 0.00, 0.00, 0.00, 1486242223284
109, -143595.58, -143945.36, -143400.77, -143446.42, -143549.25, -143668.61, -144003.48, 55485.61, 0.00, 0.00, 0.00, 1486242223288
110, -143609.50, -143923.55, -143406.53, -143465.05, -143556.67, -143710.77, -143985.89, 55489.90, 0.00, 0.00, 0.00, 1486242223292
111, -143609.66, -143893.00, -143404.92, -143458.77, -143550.36, -143698.36, -143958.02, 55504.66, 0.00, 0.00, 0.00, 1486242223297
112, -143604.59, -143872.61, -143404.78, -143454.81, -143552.95, -143705.17, -143940.77, 55509.80, 0.00, 0.00, 0.00, 1486242223301
113, -143590.00, -143864.67, -143405.17, -143446.70, -143542.08, -143647.22, -143935.19, 55503.61, 0.00, 0.00, 0.00, 1486242223304
114, -143612.97, -143843.89, -143408.75, -143465.53, -143554.30, -143698.94, -143936.94, 55513.37, 0.00, 0.00, 0.00, 1486242223308
115, -143616.53, -143799.45, -143399.75, -143457.16, -143555.95, -143730.55, -144050.78, 55553.18, 0.00, 0.00, 0.00, 1486242223312
116, -143588.41, -143777.44, -143388.83, -143443.20, -143531.14, -143654.48, -144108.80, 55562.37, 0.00, 0.00, 0.00, 1486242223316
117, -143582.42, -143770.80, -143389.50, -143444.19, -143534.98, -143653.09, -144105.73, 55554.54, 0.00, 0.00, 0.00, 1486242223320
118, -143593.08, -143756.16, -143396.77, -143451.61, -143541.95, -143684.36, -144093.28, 55555.04, 0.01, -0.01, 1.05, 1486242223325
119, -143604.45, -143725.75, -143396.42, -143455.48, -143556.33, -143727.34, -144066.27, 55569.65, 0.00, 0.00, 0.00, 1486242223329
120, -143585.66, -143699.66, -143395.02, -143449.94, -143544.59, -143683.36, -144043.44, 55580.29, 0.00, 0.00, 0.00, 1486242223332
121, -143582.50, -143689.86, -143395.02, -143444.55, -143539.67, -143657.88, -144037.00, 55576.09, 0.00, 0.00, 0.00, 1486242223336
122, -143577.55, -143679.64, -143396.00, -143446.42, -143536.73, -143647.11, -144029.39, 55570.77, 0.00, 0.00, 0.00, 1486242223340
123, -143588.63, -143628.77, -143395.72, -143453.42, -143547.30, -143715.50, -144005.02, 55582.26, 0.00, 0.00, 0.00, 1486242223344
124, -143609.34, -143269.06, -143396.81, -143451.33, -143546.34, -143708.59, -143976.80, 55599.38, 0.00, 0.00, 0.00, 1486242223348
125, -143611.56, -143125.08, -143397.44, -143455.38, -143549.63, -143726.77, -143946.81, 55617.93, 0.00, 0.00, 0.00, 1486242223352
126, -143629.52, -143310.42, -143397.59, -143464.39, -143560.83, -143785.80, -143936.89, 55647.30, 0.00, 0.00, 0.00, 1486242223357
127, -143641.41, -143474.77, -143395.91, -143469.63, -143563.55, -143810.25, -144039.69, 55707.43, 0.00, 0.00, 0.00, 1486242223361
128, -143611.05, -143651.06, -143386.92, -143452.47, -143548.98, -143747.44, -144052.67, 55753.52, 0.01, -0.01, 1.05, 1486242223364
129, -143592.78, -143850.95, -143379.94, -143437.31, -143537.98, -143696.50, -144019.48, 55776.83, 0.00, 0.00, 0.00, 1486242223368
130, -143593.88, -144056.67, -143385.00, -143439.80, -143537.63, -143718.61, -143988.88, 55796.14, 0.00, 0.00, 0.00, 1486242223372
131, -143603.38, -144458.73, -143380.78, -143442.69, -143534.22, -143725.72, -143947.11, 55824.84, 0.00, 0.00, 0.00, 1486242223376
132, -143573.88, -144935.72, -143369.47, -143426.25, -143515.11, -143664.52, -143914.73, 55843.33, 0.00, 0.00, 0.00, 1486242223380
133, -143574.17, -144961.34, -143367.89, -143426.83, -143517.95, -143663.69, -143954.77, 55854.35, 0.00, 0.00, 0.00, 1486242223385
134, -143567.95, -144940.91, -143369.53, -143423.25, -143512.20, -143645.42, -144081.69, 55865.95, 0.00, 0.00, 0.00, 1486242223389
135, -143573.16, -144917.27, -143369.09, -143419.53, -143513.61, -143665.92, -144085.98, 55872.32, 0.00, 0.00, 0.00, 1486242223392
136, -143578.97, -144883.06, -143365.63, -143421.17, -143517.81, -143676.30, -144057.33, 55888.84, 0.00, 0.00, 0.00, 1486242223397
137, -143563.39, -144862.55, -143366.30, -143416.20, -143516.02, -143650.77, -144040.36, 55892.73, 0.00, 0.00, 0.00, 1486242223399
138, -143558.48, -144854.66, -143364.58, -143412.72, -143509.38, -143614.27, -144034.45, 55883.67, 0.01, -0.01, 1.05, 1486242223403
139, -143569.11, -144836.64, -143369.09, -143427.52, -143515.38, -143666.13, -144020.72, 55884.19, 0.00, 0.00, 0.00, 1486242223408
140, -143572.45, -144806.08, -143365.92, -143425.70, -143516.02, -143674.27, -143994.20, 55897.38, 0.00, 0.00, 0.00, 1486242223413
141, -143556.69, -144785.25, -143362.61, -143419.92, -143506.67, -143643.70, -143977.80, 55900.62, 0.00, 0.00, 0.00, 1486242223417
142, -143554.23, -144776.84, -143368.33, -143417.13, -143500.52, -143610.44, -143972.39, 55892.52, 0.00, 0.00, 0.00, 1486242223420
143, -143566.23, -144762.25, -143367.59, -143415.47, -143511.81, -143647.39, -143960.58, 55890.29, 0.00, 0.00, 0.00, 1486242223424
144, -143574.44, -144730.56, -143366.30, -143419.45, -143519.14, -143680.23, -143932.72, 55904.24, 0.00, 0.00, 0.00, 1486242223428
145, -143565.47, -144704.77, -143362.19, -143410.86, -143512.30, -143660.56, -143911.64, 55912.86, 0.00, 0.00, 0.00, 1486242223432
146, -143551.19, -144695.63, -143362.55, -143412.72, -143504.39, -143610.89, -143906.09, 55907.43, 0.00, 0.00, 0.00, 1486242223436
147, -143566.13, -144683.16, -143362.05, -143419.22, -143512.98, -143652.94, -143897.48, 55905.04, 0.00, 0.00, 0.00, 1486242223440
148, -143584.41, -144645.55, -143364.36, -143433.67, -143522.53, -143708.56, -143960.81, 55932.69, 0.01, -0.01, 1.04, 1486242223444
149, -143560.06, -144609.95, -143359.86, -143416.09, -143505.03, -143657.09, -144059.80, 55956.27, 0.00, 0.00, 0.00, 1486242223448
150, -143545.95, -144599.16, -143356.84, -143411.47, -143491.69, -143603.05, -144063.52, 55951.80, 0.00, 0.00, 0.00, 1486242223452
151, -143558.75, -144589.41, -143360.16, -143419.50, -143500.92, -143629.59, -144056.72, 55948.14, 0.00, 0.00, 0.00, 1486242223456
152, -143573.39, -144560.22, -143359.53, -143419.73, -143515.27, -143692.00, -144030.81, 55960.81, 0.00, 0.00, 0.00, 1486242223460
153, -143559.80, -144530.22, -143354.78, -143409.55, -143507.47, -143656.44, -144004.28, 55973.30, 0.00, 0.00, 0.00, 1486242223464
154, -143546.94, -144517.75, -143354.83, -143408.72, -143497.05, -143601.66, -143994.61, 55969.79, 0.00, 0.00, 0.00, 1486242223468
155, -143546.75, -144509.44, -143356.11, -143411.27, -143496.97, -143609.97, -143989.39, 55962.75, 0.00, 0.00, 0.00, 1486242223473
156, -143563.11, -144487.97, -143355.80, -143412.09, -143502.13, -143654.44, -143972.39, 55967.98, 0.00, 0.00, 0.00, 1486242223475
157, -143558.36, -144458.81, -143353.00, -143411.38, -143505.41, -143667.70, -143946.48, 55981.66, 0.00, 0.00, 0.00, 1486242223480
158, -143551.08, -144442.31, -143349.20, -143401.66, -143490.17, -143605.75, -143933.52, 55983.86, 0.01, -0.02, 1.04, 1486242223484
159, -143551.02, -144434.59, -143352.14, -143402.22, -143494.89, -143613.28, -143929.61, 55977.62, 0.00, 0.00, 0.00, 1486242223487
160, -143557.25, -144411.98, -143353.06, -143408.61, -143507.92, -143668.73, -143911.19, 55986.16, 0.00, 0.00, 0.00, 1486242223492
161, -143561.36, -144378.34, -143350.53, -143409.95, -143503.33, -143673.34, -143890.02, 56006.23, 0.00, 0.00, 0.00, 1486242223497
162, -143558.59, -144345.17, -143350.31, -143406.69, -143498.53, -143662.59, -143993.39, 56031.15, 0.00, 0.00, 0.00, 1486242223501
163, -143542.58, -144333.23, -143345.78, -143396.67, -143484.19, -143608.48, -144073.30, 56031.24, 0.00, 0.00, 0.00, 1486242223504
164, -143552.05, -144318.09, -143347.09, -143406.83, -143491.16, -143631.77, -144063.52, 56029.90, 0.00, 0.00, 0.00, 1486242223508
165, -143558.61, -144288.08, -143351.30, -143414.80, -143502.80, -143673.81, -144035.67, 56043.51, 0.00, 0.00, 0.00, 1486242223511
166, -143535.39, -144265.00, -143350.56, -143406.23, -143495.06, -143624.86, -144016.69, 56051.20, 0.00, 0.00, 0.00, 1486242223517
167, -143533.75, -144257.95, -143348.08, -143402.22, -143486.77, -143588.11, -144012.75, 56045.01, 0.00, 0.00, 0.00, 1486242223520
168, -143552.80, -144241.66, -143353.56, -143402.47, -143499.06, -143650.75, -143999.20, 56045.75, 0.02, -0.01, 1.05, 1486242223524
169, -143550.92, -144212.98, -143346.38, -143396.69, -143494.95, -143642.08, -143972.97, 56058.60, 0.00, 0.00, 0.00, 1486242223529
170, -143542.05, -144190.27, -143339.66, -143392.06, -143481.77, -143609.86, -143953.92, 56064.32, 0.00, 0.00, 0.00, 1486242223532
171, -143538.56, -144181.33, -143342.14, -143394.33, -143486.14, -143600.88, -143948.05, 56057.93, 0.00, 0.00, 0.00, 1486242223537
172, -143538.66, -144171.94, -143343.56, -143399.20, -143484.63, -143608.03, -143941.11, 56051.64, 0.00, 0.00, 0.00, 1486242223539
173, -143551.77, -144143.83, -143345.13, -143408.41, -143493.59, -143657.16, -143917.42, 56063.29, 0.00, 0.00, 0.00, 1486242223544
174, -143544.38, -144115.66, -143343.94, -143402.50, -143493.14, -143641.67, -143894.02, 56076.90, 0.00, 0.00, 0.00, 1486242223548
175, -143531.98, -144103.56, -143345.63, -143392.67, -143484.53, -143611.88, -143885.14, 56075.29, 0.00, 0.00, 0.00, 1486242223552
176, -143535.52, -144092.66, -143343.78, -143391.16, -143482.55, -143598.80, -143876.31, 56071.65, 0.00, 0.00, 0.00, 1486242223557
177, -143566.28, -144058.23, -143342.33, -143403.16, -143503.78, -143695.14, -143914.30, 56095.93, 0.00, 0.00, 0.00, 1486242223559
178, -143546.72, -144018.00, -143339.91, -143393.98, -143492.36, -143665.08, -144023.14, 56128.16, 0.02, -0.01, 1.04, 1486242223564
179, -143524.81, -144004.17, -143336.09, -143379.70, -143476.80, -143596.97, -144032.38, 56126.77, 0.00, 0.00, 0.00, 1486242223569
180, -143526.61, -143998.38, -143335.08, -143384.92, -143476.84, -143590.94, -144030.36, 56116.58, 0.00, 0.00, 0.00, 1486242223572
181, -143546.23, -143974.89, -143337.84, -143395.08, -143483.20, -143640.64, -144010.16, 56121.96, 0.00, 0.00, 0.00, 1486242223576
182, -143537.48, -143944.17, -143332.80, -143387.63, -143481.81, -143629.00, -143983.42, 56135.49, 0.00, 0.00, 0.00, 1486242223581
183, -143526.61, -143928.02, -143332.25, -143386.92, -143477.20, -143599.42, -143969.91, 56135.58, 0.00, 0.00, 0.00, 1486242223584
184, -143522.98, -143917.09, -143339.88, -143384.92, -143475.44, -143592.94, -143961.20, 56129.32, 0.00, 0.00, 0.00, 1486242223587
185, -143535.08, -143898.31, -143334.28, -143386.23, -143476.61, -143620.84, -143945.70, 56132.34, 0.00, 0.00, 0.00, 1486242223592
186, -143540.94, -143867.72, -143329.66, -143388.81, -143484.56, -143658.34, -143918.56, 56147.04, 0.00, 0.00, 0.00, 1486242223596
187, -143521.59, -143847.08, -143333.69, -143382.09, -143470.97, -143594.69, -143901.22, 56151.76, 0.00, 0.00, 0.00, 1486242223600
188, -143517.03, -143842.14, -143334.52, -143373.67, -143464.69, -143578.70, -143898.88, 56143.76, 0.02, -0.02, 1.04, 1486242223604
189, -143538.22, -143826.55, -143330.58, -143384.69, -143480.78, -143617.53, -143886.02, 56146.20, 0.00, 0.00, 0.00, 1486242223609
190, -143560.52, -143787.45, -143334.22, -143403.44, -143498.55, -143699.31, -143892.03, 56176.37, 0.00, 0.00, 0.00, 1486242223612
191, -143532.48, -143750.97, -143331.39, -143388.69, -143475.64, -143614.05, -144014.72, 56208.67, 0.00, 0.00, 0.00, 1486242223615
192, -143515.31, -143739.48, -143330.22, -143377.00, -143472.11, -143586.81, -144044.77, 56206.34, 0.00, 0.00, 0.00, 1486242223620
193, -143526.63, -143725.20, -143330.38, -143378.59, -143475.81, -143613.02, -144032.48, 56204.53, 0.00, 0.00, 0.00, 1486242223624
194, -143535.41, -143696.19, -143329.59, -143383.58, -143476.16, -143644.91, -144005.84, 56217.50, 0.00, 0.00, 0.00, 1486242223628
195, -143524.50, -143671.05, -143325.81, -143372.80, -143471.50, -143610.75, -143984.61, 56225.36, 0.00, 0.00, 0.00, 1486242223631
196, -143516.09, -143662.50, -143319.92, -143367.64, -143471.95, -143580.34, -143979.14, 56217.86, 0.00, 0.00, 0.00, 1486242223636
197, -143516.66, -143652.41, -143325.39, -143377.70, -143469.77, -143582.27, -143971.58, 56214.23, 0.00, 0.00, 0.00, 1486242223640
198, -143520.91, -143626.20, -143325.34, -143376.09, -143474.17, -143631.09, -143947.86, 56226.79, 0.02, -0.02, 1.04, 1486242223643
199, -143512.86, -143598.95, -143325.48, -143378.86, -143470.23, -143616.91, -143924.27, 56237.97, 0.00, 0.00, 0.00, 1486242223647
200, -143501.75, -143585.45, -143321.89, -143369.78, -143459.95, -143580.50, -143913.88, 56236.92, 0.00, 0.00, 0.00, 1486242223652
201, -143506.70, -143529.13, -143325.77, -143383.63, -143463.17, -143586.75, -143906.89, 56231.64, 0.00, 0.00, 0.00, 1486242223655
202, -143557.58, -143124.41, -143329.89, -143394.17, -143490.50, -143700.92, -143872.52, 56253.04, 0.00, 0.00, 0.00, 1486242223660
203, -143557.36, -143037.41, -143323.84, -143388.36, -143482.09, -143702.84, -143890.58, 56305.70, 0.00, 0.00, 0.00, 1486242223664
204, -143532.73, -143221.66, -143318.86, -143378.77, -143471.58, -143652.89, -144002.92, 56345.91, 0.00, 0.00, 0.00, 1486242223669
205, -143535.23, -143423.66, -143316.05, -143376.88, -143472.41, -143662.64, -143993.69, 56365.24, 0.00, 0.00, 0.00, 1486242223671
206, -143547.30, -143609.80, -143317.38, -143382.48, -143480.97, -143699.94, -143947.58, 56398.88, 0.00, 0.00, 0.00, 1486242223675
207, -143540.84, -143785.73, -143312.92, -143381.39, -143473.08, -143692.44, -143895.03, 56439.70, 0.00, 0.00, 0.00, 1486242223680
208, -143519.00, -143980.91, -143306.44, -143364.11, -143456.64, -143632.73, -143854.69, 56467.57, 0.02, -0.01, 1.04, 1486242223684
209, -143531.41, -144406.06, -143309.80, -143366.75, -143465.58, -143662.44, -143869.55, 56496.69, 0.00, 0.00, 0.00, 1486242223689
210, -143523.14, -144864.72, -143308.08, -143367.59, -143460.73, -143642.72, -143983.63, 56531.65, 0.00, 0.00, 0.00, 1486242223693
211, -143510.11, -144872.11, -143301.86, -143359.13, -143453.69, -143620.70, -143985.16, 56551.14, 0.00, 0.00, 0.00, 1486242223696
212, -143486.95, -144854.55, -143296.25, -143345.91, -143436.55, -143549.17, -143971.53, 56552.15, 0.00, 0.00, 0.00, 1486242223699
213, -143489.97, -144847.22, -143298.66, -143350.25, -143431.41, -143545.67, -143967.78, 56543.32, 0.00, 0.00, 0.00, 1486242223703
214, -143503.31, -144829.67, -143301.05, -143353.48, -143444.50, -143592.45, -143955.02, 56542.58, 0.00, 0.00, 0.00, 1486242223708
215, -143507.16, -144796.97, -143298.02, -143356.31, -143450.31, -143625.88, -143926.31, 56557.24, 0.00, 0.00, 0.00, 1486242223713
216, -143495.27, -144772.41, -143293.20, -143346.81, -143440.95, -143575.16, -143905.72, 56563.90, 0.00, 0.00, 0.00, 1486242223716
217, -143485.39, -144763.38, -143294.59, -143346.00, -143433.89, -143536.91, -143899.39, 56556.80, 0.00, 0.00, 0.00, 1486242223720
218, -143496.14, -144749.72, -143297.61, -143349.16, -143441.33, -143570.41, -143889.95, 56553.67, 0.02, -0.01, 1.03, 1486242223724
219, -143504.08, -144718.63, -143298.33, -143350.77, -143449.41, -143618.25, -143864.14, 56567.37, 0.00, 0.00, 0.00, 1486242223727
220, -143486.64, -144696.61, -143291.03, -143340.28, -143433.42, -143558.03, -143845.41, 56573.85, 0.00, 0.00, 0.00, 1486242223732
221, -143485.05, -144688.00, -143291.31, -143337.48, -143432.06, -143538.00, -143839.44, 56566.74, 0.00, 0.00, 0.00, 1486242223736
222, -143491.38, -144677.16, -143292.06, -143339.94, -143435.59, -143568.80, -143830.77, 56562.23, 0.00, 0.00, 0.00, 1486242223740
223, -143515.92, -144639.86, -143296.45, -143364.98, -143451.20, -143649.11, -143855.83, 56589.43, 0.00, 0.00, 0.00, 1486242223744
224, -143494.64, -144597.13, -143288.47, -143350.20, -143442.72, -143621.05, -143972.34, 56623.80, 0.00, 0.00, 0.00, 1486242223759
225, -143474.25, -144582.39, -143285.11, -143340.34, -143432.44, -143544.66, -143988.41, 56622.46, 0.00, 0.00, 0.00, 1486242223759
226, -143480.11, -144572.55, -143287.75, -143344.28, -143432.50, -143546.09, -143982.16, 56615.40, 0.00, 0.00, 0.00, 1486242223759
227, -143498.00, -144548.33, -143285.72, -143344.34, -143441.08, -143603.97, -143961.30, 56622.13, 0.00, 0.00, 0.00, 1486242223760
228, -143490.42, -144519.41, -143282.14, -143340.44, -143440.03, -143585.80, -143936.00, 56631.96, 0.02, -0.01, 1.04, 1486242223764
229, -143478.91, -144503.67, -143284.20, -143340.14, -143434.97, -143548.86, -143923.97, 56630.67, 0.00, 0.00, 0.00, 1486242223768
230, -143473.67, -144494.86, -143287.38, -143341.94, -143429.50, -143548.95, -143918.05, 56623.96, 0.00, 0.00, 0.00, 1486242223773
231, -143494.81, -144473.36, -143285.56, -143342.17, -143434.52, -143585.52, -143899.77, 56628.66, 0.00, 0.00, 0.00, 1486242223777
232, -143500.11, -144440.45, -143284.59, -143343.86, -143437.08, -143592.50, -143871.45, 56644.32, 0.00, 0.00, 0.00, 1486242223779
233, -143476.53, -144423.75, -143280.69, -143331.41, -143426.36, -143540.03, -143857.52, 56645.42, 0.00, 0.00, 0.00, 1486242223783
234, -143469.05, -144417.14, -143284.22, -143330.88, -143424.09, -143525.00, -143853.41, 56635.43, 0.00, 0.00, 0.00, 1486242223788
235, -143482.41, -144398.64, -143283.69, -143333.39, -143431.23, -143574.73, -143839.08, 56636.57, 0.00, 0.00, 0.00, 1486242223792
236, -143492.03, -144367.70, -143285.98, -143340.66, -143433.91, -143606.00, -143814.50, 56652.80, 0.00, 0.00, 0.00, 1486242223796
237, -143485.66, -144336.31, -143286.09, -143338.41, -143431.25, -143592.77, -143896.22, 56678.28, 0.00, 0.00, 0.00, 1486242223800
238, -143474.53, -144321.03, -143278.16, -143330.13, -143425.17, -143547.45, -143995.55, 56685.32, 0.02, -0.02, 1.04, 1486242223804
239, -143480.78, -144304.09, -143281.20, -143333.16, -143428.02, -143572.11, -143987.97, 56688.34, 0.00, 0.00, 0.00, 1486242223808
240, -143489.97, -144272.44, -143276.13, -143330.88, -143431.61, -143594.98, -143959.95, 56703.98, 0.00, 0.00, 0.00, 1486242223812
241, -143464.42, -144250.28, -143273.16, -143323.42, -143415.30, -143541.64, -143941.30, 56710.49, 0.00, 0.00, 0.00, 1486242223816
242, -143467.53, -144242.81, -143272.08, -143322.00, -143417.81, -143528.39, -143937.11, 56703.29, 0.00, 0.00, 0.00, 1486242223820
243, -143479.44, -144229.08, -143277.38, -143336.59, -143426.63, -143569.39, -143925.78, 56703.11, 0.00, 0.00, 0.00, 1486242223824
244, -143480.77, -144199.84, -143278.09, -143338.98, -143427.39, -143595.17, -143901.39, 56715.85, 0.00, 0.00, 0.00, 1486242223829
245, -143467.80, -144175.50, -143274.61, -143326.69, -143416.55, -143547.06, -143880.91, 56724.57, 0.00, 0.00, 0.00, 1486242223832
246, -143460.89, -144165.69, -143272.86, -143318.67, -143418.53, -143533.00, -143874.55, 56716.81, 0.00, 0.00, 0.00, 1486242223836
247, -143470.28, -144154.86, -143273.69, -143325.33, -143418.94, -143534.41, -143867.02, 56710.64, 0.00, 0.00, 0.00, 1486242223839
248, -143479.11, -144126.92, -143274.75, -143327.36, -143423.34, -143582.28, -143842.50, 56722.33, 0.01, -0.02, 1.04, 1486242223843
249, -143473.19, -144098.27, -143273.31, -143326.36, -143416.80, -143580.22, -143818.14, 56734.40, 0.00, 0.00, 0.00, 1486242223848
250, -143462.39, -144086.88, -143271.80, -143318.47, -143404.86, -143518.38, -143809.83, 56730.18, 0.00, 0.00, 0.00, 1486242223853
251, -143468.98, -144077.02, -143274.28, -143328.81, -143415.66, -143549.42, -143809.80, 56726.56, 0.00, 0.00, 0.00, 1486242223857
252, -143488.36, -144041.75, -143275.09, -143331.63, -143431.56, -143616.23, -143909.36, 56757.96, 0.00, 0.00, 0.00, 1486242223860
253, -143473.67, -144007.69, -143266.47, -143317.86, -143418.23, -143577.63, -143978.44, 56782.01, 0.00, 0.00, 0.00, 1486242223863
254, -143454.81, -143995.08, -143262.09, -143309.70, -143400.52, -143506.95, -143972.34, 56778.75, 0.00, 0.00, 0.00, 1486242223867
255, -143454.42, -143987.63, -143265.80, -143319.53, -143404.58, -143517.28, -143968.61, 56770.97, 0.00, 0.00, 0.00, 1486242223871
0, -143474.20, -143964.31, -143266.23, -143328.98, -143418.78, -143587.95, -143948.06, 56779.93, 0.00, 0.00, 0.00, 1486242223876
1, -143475.42, -143930.30, -143266.56, -143329.84, -143419.06, -143592.91, -143917.42, 56796.23, 0.00, 0.00, 0.00, 1486242223881
2, -143455.64, -143912.39, -143261.25, -143317.41, -143406.27, -143521.97, -143904.02, 56795.36, 0.02, -0.02, 1.04, 1486242223884
3, -143461.78, -143906.66, -143262.31, -143315.72, -143404.55, -143508.63, -143901.67, 56785.48, 0.00, 0.00, 0.00, 1486242223888
4, -143460.95, -143891.72, -143264.94, -143313.08, -143404.94, -143536.80, -143889.66, 56785.90, 0.00, 0.00, 0.00, 1486242223892
5, -143466.08, -143863.84, -143261.17, -143314.33, -143411.27, -143569.52, -143865.66, 56796.85, 0.00, 0.00, 0.00, 1486242223896
6, -143454.88, -143844.22, -143258.27, -143308.58, -143408.03, -143535.88, -143849.05, 56800.21, 0.00, 0.00, 0.00, 1486242223899
7, -143451.91, -143835.08, -143262.86, -143314.33, -143405.92, -143516.61, -143843.13, 56793.72, 0.00, 0.00, 0.00, 1486242223903
8, -143458.13, -143819.14, -143265.47, -143319.73, -143404.09, -143535.77, -143828.95, 56796.18, 0.00, 0.00, 0.00, 1486242223907
9, -143468.72, -143790.38, -143260.73, -143309.08, -143410.64, -143564.72, -143804.23, 56809.88, 0.00, 0.00, 0.00, 1486242223912
10, -143460.64, -143764.20, -143257.80, -143311.94, -143410.89, -143573.66, -143803.45, 56824.77, 0.00, 0.00, 0.00, 1486242223916
11, -143455.92, -143743.91, -143258.41, -143306.78, -143397.88, -143519.66, -143930.30, 56839.88, 0.00, 0.00, 0.00, 1486242223920
12, -143456.00, -143729.89, -143257.41, -143310.03, -143400.03, -143543.09, -143975.97, 56840.11, 0.00, 0.00, 0.00, 1486242223923
13, -143468.56, -143701.33, -143257.78, -143317.30, -143409.45, -143577.47, -143950.42, 56852.51, 0.01, -0.02, 1.04, 1486242223927
14, -143453.27, -143675.83, -143260.30, -143312.39, -143395.73, -143539.70, -143928.64, 56861.85, 0.00, 0.00, 0.00, 1486242223931
15, -143446.05, -143665.63, -143260.28, -143299.91, -143391.47, -143504.14, -143921.17, 56856.09, 0.00, 0.00, 0.00, 1486242223936
16, -143448.66, -143656.36, -143255.52, -143307.42, -143399.22, -143524.95, -143914.52, 56851.73, 0.00, 0.00, 0.00, 1486242223940
17, -143464.75, -143628.97, -143257.64, -143316.72, -143411.69, -143585.08, -143890.69, 56864.33, 0.00, 0.00, 0.00, 1486242223943
18, -143453.95, -143601.48, -143257.33, -143314.67, -143399.53, -143541.56, -143865.72, 56876.14, 0.00, 0.00, 0.00, 1486242223948
19, -143442.14, -143591.05, -143256.53, -143305.61, -143394.50, -143506.39, -143857.47, 56871.17, 0.00, 0.00, 0.00, 1486242223952
20, -143441.23, -143583.91, -143258.70, -143306.11, -143400.88, -143511.11, -143853.20, 56862.52, 0.00, 0.00, 0.00, 1486242223955
21, -143446.58, -143563.27, -143254.67, -143310.02, -143395.95, -143532.30, -143836.20, 56866.84, 0.00, 0.00, 0.00, 1486242223959
22, -143446.05, -143535.03, -143253.06, -143304.78, -143396.52, -143542.88, -143811.36, 56878.28, 0.00, 0.00, 0.00, 1486242223963
23, -143432.14, -143521.03, -143252.80, -143300.03, -143385.81, -143511.31, -143799.92, 56876.98, 0.01, -0.01, 1.03, 1486242223969
24, -143424.30, -143510.48, -143249.11, -143300.06, -143382.23, -143492.58, -143796.13, 56870.10, 0.00, 0.00, 0.00, 1486242223971
25, -143469.45, -143255.23, -143253.75, -143321.89, -143411.77, -143606.36, -143781.25, 56884.85, 0.00, 0.00, 0.00, 1486242223976
26, -143503.05, -142918.55, -143252.53, -143325.14, -143426.58, -143679.31, -143864.94, 56943.88, 0.00, 0.00, 0.00, 1486242223980
27, -143460.33, -143059.11, -143245.22, -143303.67, -143402.97, -143590.70, -143934.45, 56982.84, 0.00, 0.00, 0.00, 1486242223983
28, -143455.92, -143268.33, -143241.27, -143298.08, -143396.34, -143563.55, -143912.95, 56997.04, 0.00, 0.00, 0.00, 1486242223987
29, -143467.81, -143464.75, -143243.73, -143307.38, -143400.20, -143592.27, -143875.63, 57022.72, 0.00, 0.00, 0.00, 1486242223992
30, -143468.84, -143644.17, -143245.08, -143311.27, -143405.53, -143628.44, -143824.53, 57062.17, 0.00, 0.00, 0.00, 1486242223997
31, -143455.34, -143834.77, -143238.20, -143296.69, -143394.77, -143583.00, -143782.28, 57091.70, 0.00, 0.00, 0.00, 1486242224000
32, -143458.09, -144116.28, -143237.02, -143298.02, -143394.58, -143595.58, -143806.41, 57124.66, 0.00, 0.00, 0.00, 1486242224002
33, -143443.36, -144684.05, -143229.08, -143292.58, -143386.80, -143562.39, -143916.59, 57157.10, 0.02, -0.01, 1.03, 1486242224008
34, -143436.64, -144812.52, -143225.39, -143286.92, -143377.92, -143532.28, -143909.78, 57173.70, 0.00, 0.00, 0.00, 1486242224012
35, -143419.77, -144788.88, -143224.63, -143279.58, -143369.16, -143509.06, -143891.23, 57178.69, 0.00, 0.00, 0.00, 1486242224016
36, -143410.28, -144781.23, -143223.09, -143276.36, -143363.55, -143471.42, -143887.36, 57168.63, 0.00, 0.00, 0.00, 1486242224020
37, -143415.53, -144770.44, -143223.78, -143277.97, -143363.13, -143473.03, -143881.22, 57162.75, 0.00, 0.00, 0.00, 1486242224025
38, -143442.14, -144741.88, -143231.63, -143282.97, -143382.39, -143557.27, -143856.27, 57176.12, 0.00, 0.00, 0.00, 1486242224027
39, -143427.83, -144713.86, -143230.69, -143277.52, -143368.70, -143515.98, -143832.17, 57188.25, 0.00, 0.00, 0.00, 1486242224031
40, -143414.94, -144703.17, -143224.77, -143268.78, -143362.00, -143473.92, -143823.97, 57183.61, 0.00, 0.00, 0.00, 1486242224035
41, -143418.91, -144692.61, -143222.64, -143275.06, -143371.80, -143509.38, -143817.53, 57177.73, 0.00, 0.00, 0.00, 1486242224040
42, -143438.42, -144664.94, -143223.77, -143284.88, -143376.78, -143537.28, -143794.47, 57187.56, 0.00, 0.00, 0.00, 1486242224044
43, -143434.25, -144636.05, -143221.50, -143278.45, -143383.13, -143539.17, -143769.77, 57198.96, 0.02, -0.01, 1.03, 1486242224047
44, -143417.91, -144625.77, -143219.47, -143271.91, -143370.92, -143469.70, -143762.25, 57194.49, 0.00, 0.00, 0.00, 1486242224052
45, -143412.39, -144618.44, -143227.72, -143275.27, -143363.80, -143467.94, -143758.34, 57187.61, 0.00, 0.00, 0.00, 1486242224056
46, -143440.66, -144591.63, -143223.56, -143280.48, -143377.42, -143554.55, -143757.19, 57201.38, 0.00, 0.00, 0.00, 1486242224058
47, -143436.66, -144545.64, -143219.38, -143277.61, -143381.50, -143571.47, -143872.27, 57240.83, 0.00, 0.00, 0.00, 1486242224063
48, -143408.42, -144525.39, -143213.45, -143265.33, -143358.55, -143477.70, -143926.30, 57249.01, 0.00, 0.00, 0.00, 1486242224068
49, -143414.67, -144517.50, -143221.50, -143272.36, -143356.44, -143480.47, -143921.25, 57241.27, 0.00, 0.00, 0.00, 1486242224071
50, -143434.41, -144494.91, -143224.88, -143278.36, -143376.64, -143551.30, -143901.84, 57248.29, 0.00, 0.00, 0.00, 1486242224075
51, -143429.33, -144462.77, -143219.00, -143272.58, -143371.64, -143530.73, -143873.13, 57263.89, 0.00, 0.00, 0.00, 1486242224081
52, -143409.88, -144449.64, -143211.44, -143261.20, -143351.98, -143446.83, -143863.05, 57261.84, 0.00, 0.00, 0.00, 1486242224084
53, -143404.19, -144444.30, -143215.72, -143262.45, -143353.17, -143460.78, -143861.95, 57251.18, 0.02, -0.02, 1.04, 1486242224087
54, -143420.72, -144426.75, -143218.69, -143271.72, -143366.28, -143524.17, -143848.20, 57251.82, 0.00, 0.00, 0.00, 1486242224092
55, -143425.97, -144395.30, -143213.45, -143268.27, -143364.28, -143514.47, -143820.94, 57266.62, 0.00, 0.00, 0.00, 1486242224095
56, -143412.25, -144372.94, -143211.52, -143264.47, -143360.39, -143504.59, -143802.58, 57273.50, 0.00, 0.00, 0.00, 1486242224100
57, -143400.92, -144364.69, -143217.13, -143259.08, -143353.89, -143466.95, -143796.23, 57267.40, 0.00, 0.00, 0.00, 1486242224104
58, -143420.98, -144351.31, -143215.17, -143266.11, -143361.06, -143495.59, -143786.02, 57265.68, 0.00, 0.00, 0.00, 1486242224109
59, -143425.16, -144319.80, -143218.02, -143274.28, -143369.16, -143543.09, -143759.28, 57280.81, 0.00, 0.00, 0.00, 1486242224111
60, -143405.41, -144298.19, -143207.72, -143257.05, -143353.13, -143468.88, -143741.72, 57285.64, 0.00, 0.00, 0.00, 1486242224115
61, -143412.13, -144286.20, -143210.55, -143264.13, -143351.19, -143480.92, -143761.19, 57284.64, 0.00, 0.00, 0.00, 1486242224119
62, -143420.13, -144260.61, -143214.34, -143272.53, -143359.81, -143525.75, -143886.95, 57301.00, 0.00, 0.00, 0.00, 1486242224123
63, -143428.59, -144227.33, -143210.13, -143274.66, -143363.92, -143544.84, -143906.36, 57318.45, 0.02, -0.02, 1.03, 1486242224127
64, -143421.44, -144197.52, -143213.97, -143271.39, -143361.41, -143527.47, -143879.56, 57333.14, 0.00, 0.00, 0.00, 1486242224132
65, -143403.09, -144187.05, -143210.55, -143256.45, -143345.80, -143449.83, -143871.53, 57329.25, 0.00, 0.00, 0.00, 1486242224136
66, -143399.28, -144180.58, -143208.16, -143260.86, -143346.11, -143454.86, -143866.97, 57321.25, 0.00, 0.00, 0.00, 1486242224139
67, -143411.73, -144155.30, -143207.94, -143260.64, -143358.97, -143526.17, -143845.94, 57329.16, 0.00, 0.00, 0.00, 1486242224143
68, -143409.17, -144127.78, -143205.97, -143259.95, -143350.84, -143489.23, -143822.61, 57338.30, 0.00, 0.00, 0.00, 1486242224148
69, -143402.39, -144116.91, -143205.81, -143256.44, -143344.17, -143464.48, -143814.53, 57334.30, 0.00, 0.00, 0.00, 1486242224152
70, -143402.84, -144109.72, -143205.91, -143256.75, -143342.69, -143463.58, -143809.06, 57329.00, 0.00, 0.00, 0.00, 1486242224155
71, -143411.72, -144086.89, -143208.31, -143261.06, -143353.59, -143505.41, -143789.91, 57336.34, 0.00, 0.00, 0.00, 1486242224159
72, -143416.03, -144055.73, -143205.25, -143259.80, -143358.52, -143530.63, -143762.69, 57350.33, 0.00, 0.00, 0.00, 1486242224164
73, -143401.59, -144038.95, -143200.58, -143248.61, -143351.55, -143483.38, -143748.72, 57351.24, 0.02, -0.02, 1.04, 1486242224168
74, -143393.05, -144033.11, -143200.41, -143253.08, -143342.78, -143442.19, -143745.27, 57341.68, 0.00, 0.00, 0.00, 1486242224170
75, -143413.75, -144011.14, -143205.61, -143263.59, -143355.17, -143509.58, -143739.06, 57349.57, 0.00, 0.00, 0.00, 1486242224175
76, -143421.45, -143967.11, -143203.89, -143266.34, -143361.09, -143554.91, -143846.38, 57386.18, 0.00, 0.00, 0.00, 1486242224180
77, -143391.16, -143942.02, -143197.25, -143252.64, -143345.00, -143485.83, -143917.06, 57399.16, 0.00, 0.00, 0.00, 1486242224183
78, -143382.23, -143936.44, -143193.14, -143246.56, -143336.69, -143434.06, -143915.56, 57391.07, 0.00, 0.00, 0.00, 1486242224188
79, -143402.86, -143920.73, -143194.44, -143251.91, -143344.38, -143481.56, -143903.28, 57391.41, 0.00, 0.00, 0.00, 1486242224192
80, -143410.39, -143887.92, -143195.42, -143256.97, -143349.25, -143520.19, -143874.19, 57406.36, 0.00, 0.00, 0.00, 1486242224195
81, -143397.23, -143865.64, -143196.61, -143252.59, -143340.08, -143481.31, -143854.75, 57411.57, 0.00, 0.00, 0.00, 1486242224198
82, -143393.05, -143855.98, -143208.20, -143254.27, -143337.58, -143462.97, -143847.22, 57406.63, 0.00, 0.00, 0.00, 1486242224202
83, -143399.09, -143843.80, -143199.03, -143248.34, -143337.33, -143465.67, -143838.03, 57403.48, 0.02, -0.01, 1.03, 1486242224208
84, -143410.36, -143815.64, -143196.78, -143256.73, -143353.83, -143524.44, -143813.48, 57417.27, 0.00, 0.00, 0.00, 1486242224212
85, -143390.44, -143792.25, -143194.81, -143248.92, -143334.36, -143450.81, -143793.81, 57425.88, 0.00, 0.00, 0.00, 1486242224215
86, -143380.31, -143785.73, -143191.47, -143241.70, -143326.80, -143422.67, -143789.59, 57416.54, 0.00, 0.00, 0.00, 1486242224220
87, -143400.31, -143773.50, -143195.03, -143249.70, -143344.95, -143497.80, -143780.41, 57413.49, 0.00, 0.00, 0.00, 1486242224224
88, -143412.30, -143740.58, -143196.78, -143259.88, -143355.39, -143531.92, -143751.13, 57431.78, 0.00, 0.00, 0.00, 1486242224227
89, -143396.14, -143710.95, -143193.97, -143248.69, -143336.69, -143463.59, -143725.69, 57445.16, 0.00, 0.00, 0.00, 1486242224231
90, -143390.09, -143692.00, -143193.16, -143241.73, -143337.73, -143486.84, -143799.63, 57458.60, 0.00, 0.00, 0.00, 1486242224236
91, -143393.34, -143674.64, -143190.39, -143243.66, -143341.38, -143489.36, -143905.80, 57467.92, 0.00, 0.00, 0.00, 1486242224240
92, -143400.11, -143649.92, -143188.11, -143246.67, -143334.69, -143483.78, -143894.25, 57476.48, 0.00, 0.00, 0.00, 1486242224243
93, -143396.19, -143621.67, -143190.44, -143250.00, -143332.59, -143489.66, -143870.22, 57487.88, 0.01, -0.02, 1.04, 1486242224248
94, -143386.86, -143607.83, -143188.42, -143240.02, -143335.52, -143471.08, -143858.92, 57487.03, 0.00, 0.00, 0.00, 1486242224252
95, -143382.02, -143598.80, -143188.00, -143246.09, -143334.61, -143449.94, -143852.25, 57481.93, 0.00, 0.00, 0.00, 1486242224255
96, -143395.98, -143574.80, -143190.66, -143247.98, -143338.89, -143484.41, -143831.55, 57490.16, 0.00, 0.00, 0.00, 1486242224260
97, -143391.80, -143544.08, -143189.27, -143245.38, -143340.64, -143492.66, -143803.66, 57505.89, 0.00, 0.00, 0.00, 1486242224264
98, -143376.42, -143528.91, -143187.38, -143231.36, -143324.39, -143445.25, -143791.78, 57504.24, 0.00, 0.00, 0.00, 1486242224268
99, -143369.06, -143523.81, -143182.98, -143233.64, -143321.55, -143420.81, -143789.23, 57493.27, 0.00, 0.00, 0.00, 1486242224272
100, -143387.58, -143506.39, -143186.75, -143248.38, -143337.94, -143493.19, -143775.28, 57497.07, 0.00, 0.00, 0.00, 1486242224274
101, -143385.83, -143474.48, -143185.94, -143247.83, -143338.17, -143498.58, -143747.08, 57513.81, 0.00, 0.00, 0.00, 1486242224279
102, -143366.03, -143455.41, -143189.66, -143239.81, -143322.86, -143450.23, -143731.75, 57514.12, 0.00, 0.00, 0.00, 1486242224283
103, -143362.03, -143448.95, -143186.30, -143231.81, -143318.31, -143420.61, -143728.94, 57505.00, 0.02, -0.02, 1.04, 1486242224286
104, -143391.33, -143299.64, -143187.81, -143243.77, -143337.22, -143507.45, -143714.31, 57511.57, 0.00, 0.00, 0.00, 1486242224292
105, -143447.72, -142873.95, -143194.61, -143270.30, -143367.08, -143632.84, -143772.16, 57566.60, 0.00, 0.00, 0.00, 1486242224296
106, -143398.33, -142939.11, -143176.38, -143233.92, -143336.17, -143513.75, -143876.77, 57616.18, 0.00, 0.00, 0.00, 1486242224299
107, -143389.88, -143147.55, -143174.08, -143233.02, -143326.22, -143486.39, -143865.25, 57633.73, 0.00, 0.00, 0.00, 1486242224303
108, -143395.84, -143347.31, -143176.31, -143238.98, -143333.94, -143530.88, -143831.13, 57656.68, 0.00, 0.00, 0.00, 1486242224307
109, -143407.22, -143528.80, -143171.69, -143243.08, -143338.42, -143562.98, -143781.19, 57694.88, 0.00, 0.00, 0.00, 1486242224311
110, -143389.05, -143716.02, -143166.16, -143230.06, -143324.39, -143507.61, -143736.48, 57730.24, 0.00, 0.00, 0.00, 1486242224314
111, -143382.45, -143965.66, -143163.45, -143224.67, -143322.83, -143489.67, -143706.09, 57751.59, 0.00, 0.00, 0.00, 1486242224319
112, -143392.50, -144523.72, -143164.34, -143230.00, -143331.39, -143542.52, -143759.44, 57786.05, 0.00, 0.00, 0.00, 1486242224324
113, -143378.44, -144739.08, -143161.44, -143218.70, -143316.86, -143497.23, -143855.55, 57818.29, 0.02, -0.02, 1.05, 1486242224328
114, -143364.17, -144712.36, -143158.58, -143214.47, -143307.47, -143442.45, -143843.80, 57828.57, 0.00, 0.00, 0.00, 1486242224331
115, -143352.89, -144700.11, -143159.31, -143218.16, -143300.77, -143411.88, -143835.38, 57822.60, 0.00, 0.00, 0.00, 1486242224336
116, -143350.92, -144690.30, -143163.09, -143215.05, -143303.89, -143432.28, -143829.56, 57814.42, 0.00, 0.00, 0.00, 1486242224338
117, -143364.59, -144665.61, -143159.61, -143211.95, -143306.91, -143462.45, -143809.08, 57822.02, 0.00, 0.00, 0.00, 1486242224343
118, -143361.16, -144636.97, -143155.97, -143209.13, -143304.67, -143448.38, -143784.31, 57833.39, 0.00, 0.00, 0.00, 1486242224347
119, -143355.52, -144622.06, -143153.80, -143205.31, -143304.16, -143423.86, -143772.77, 57831.43, 0.00, 0.00, 0.00, 1486242224352
120, -143349.00, -144611.53, -143155.78, -143210.44, -143298.03, -143418.95, -143766.27, 57825.39, 0.00, 0.00, 0.00, 1486242224356
121, -143364.47, -144588.27, -143158.11, -143210.69, -143307.78, -143460.11, -143747.11, 57830.69, 0.00, 0.00, 0.00, 1486242224359
122, -143364.08, -144557.59, -143155.41, -143211.33, -143312.16, -143468.63, -143720.45, 57844.79, 0.00, 0.00, 0.00, 1486242224363
123, -143346.97, -144542.72, -143151.20, -143200.31, -143291.94, -143403.56, -143708.55, 57842.69, 0.02, -0.02, 1.05, 1486242224372
124, -143345.73, -144537.44, -143151.88, -143205.98, -143291.48, -143399.06, -143706.77, 57832.54, 0.00, 0.00, 0.00, 1486242224372
125, -143365.53, -144517.13, -143156.70, -143211.78, -143301.08, -143459.91, -143690.13, 57836.86, 0.00, 0.00, 0.00, 1486242224375
126, -143377.50, -144473.80, -143155.75, -143225.30, -143320.75, -143530.84, -143745.11, 57871.30, 0.00, 0.00, 0.00, 1486242224380
127, -143349.59, -144442.53, -143155.19, -143211.13, -143299.89, -143453.06, -143858.81, 57893.77, 0.00, 0.00, 0.00, 1486242224384
128, -143344.84, -144432.66, -143153.94, -143200.94, -143292.02, -143420.88, -143865.91, 57887.91, 0.00, 0.00, 0.00, 1486242224387
129, -143350.50, -144416.30, -143151.61, -143201.30, -143292.27, -143419.16, -143853.16, 57886.25, 0.00, 0.00, 0.00, 1486242224390
130, -143352.06, -144388.70, -143144.75, -143199.78, -143293.16, -143439.75, -143828.39, 57896.92, 0.00, 0.00, 0.00, 1486242224395
131, -143349.47, -144367.44, -143142.48, -143195.58, -143293.83, -143431.25, -143810.38, 57903.49, 0.00, 0.00, 0.00, 1486242224399
132, -143340.22, -144360.23, -143142.44, -143195.19, -143287.80, -143391.48, -143807.36, 57896.25, 0.00, 0.00, 0.00, 1486242224403
133, -143340.53, -144347.34, -143147.00, -143207.16, -143287.23, -143416.88, -143798.63, 57895.87, 0.01, -0.02, 1.04, 1486242224407
134, -143354.78, -144319.47, -143143.63, -143200.41, -143295.06, -143455.06, -143773.45, 57908.32, 0.00, 0.00, 0.00, 1486242224413
135, -143341.42, -144296.69, -143137.13, -143191.50, -143288.42, -143428.64, -143753.88, 57915.78, 0.00, 0.00, 0.00, 1486242224415
136, -143345.31, -144283.33, -143145.17, -143202.72, -143285.34, -143418.02, -143743.44, 57914.95, 0.00, 0.00, 0.00, 1486242224420
137, -143351.17, -144269.31, -143146.33, -143202.75, -143287.95, -143423.03, -143732.75, 57911.31, 0.00, 0.00, 0.00, 1486242224423
138, -143357.53, -144241.03, -143145.22, -143200.45, -143292.69, -143456.75, -143709.11, 57920.88, 0.00, 0.00, 0.00, 1486242224427
139, -143347.31, -144215.27, -143139.19, -143191.03, -143286.48, -143421.08, -143687.30, 57930.87, 0.00, 0.00, 0.00, 1486242224431
140, -143336.44, -144206.97, -143138.20, -143190.70, -143283.95, -143391.75, -143681.92, 57924.86, 0.00, 0.00, 0.00, 1486242224436
141, -143338.06, -144198.83, -143142.16, -143199.16, -143283.53, -143406.48, -143676.72, 57918.91, 0.00, 0.00, 0.00, 1486242224440
142, -143363.50, -144163.94, -143144.45, -143213.39, -143300.52, -143488.22, -143723.55, 57945.71, 0.00, 0.00, 0.00, 1486242224443
143, -143346.42, -144123.16, -143140.92, -143203.64, -143294.06, -143465.78, -143832.08, 57977.14, 0.01, -0.02, 1.04, 1486242224447
144, -143337.94, -144106.30, -143136.67, -143191.84, -143280.09, -143406.39, -143835.91, 57978.10, 0.00, 0.00, 0.00, 1486242224451
145, -143336.41, -144097.58, -143139.30, -143192.56, -143285.66, -143403.25, -143829.20, 57973.96, 0.00, 0.00, 0.00, 1486242224455
146, -143347.44, -144075.63, -143139.94, -143198.22, -143286.88, -143438.69, -143810.83, 57979.66, 0.00, 0.00, 0.00, 1486242224458
147, -143340.97, -144045.83, -143136.55, -143187.94, -143282.64, -143424.28, -143784.50, 57991.51, 0.00, 0.00, 0.00, 1486242224463
148, -143330.53, -144033.14, -143133.64, -143181.33, -143271.81, -143394.58, -143774.89, 57989.05, 0.00, 0.00, 0.00, 1486242224468
149, -143327.56, -144028.16, -143133.55, -143184.36, -143269.17, -143374.28, -143772.39, 57979.17, 0.00, 0.00, 0.00, 1486242224472
150, -143336.41, -144010.97, -143135.67, -143194.92, -143276.47, -143414.13, -143758.30, 57980.16, 0.00, 0.00, 0.00, 1486242224475
151, -143348.33, -143979.36, -143135.73, -143191.28, -143287.17, -143467.81, -143730.86, 57996.43, 0.00, 0.00, 0.00, 1486242224479
152, -143330.84, -143957.77, -143131.11, -143180.38, -143272.64, -143397.19, -143712.19, 58001.84, 0.00, 0.00, 0.00, 1486242224483
153, -143320.36, -143950.86, -143134.95, -143186.88, -143266.42, -143370.05, -143708.48, 57993.19, 0.02, -0.01, 1.04, 1486242224487
154, -143334.00, -143935.33, -143135.94, -143185.88, -143279.58, -143436.66, -143695.66, 57995.20, 0.00, 0.00, 0.00, 1486242224491
155, -143348.23, -143901.36, -143132.23, -143191.53, -143287.22, -143464.88, -143674.80, 58017.19, 0.00, 0.00, 0.00, 1486242224496
156, -143332.44, -143866.81, -143132.77, -143184.08, -143277.38, -143418.56, -143774.00, 58044.26, 0.00, 0.00, 0.00, 1486242224499
157, -143320.30, -143855.98, -143125.17, -143170.27, -143261.72, -143377.31, -143847.53, 58042.81, 0.00, 0.00, 0.00, 1486242224503
158, -143327.97, -143844.17, -143125.44, -143181.38, -143270.63, -143405.59, -143839.81, 58039.50, 0.00, 0.00, 0.00, 1486242224507
159, -143338.30, -143815.28, -143124.56, -143182.08, -143273.05, -143436.77, -143813.27, 58053.76, 0.00, 0.00, 0.00, 1486242224511
160, -143320.41, -143790.16, -143119.53, -143166.31, -143265.05, -143404.73, -143792.23, 58064.15, 0.00, 0.00, 0.00, 1486242224515
161, -143313.66, -143781.19, -143118.13, -143166.83, -143260.50, -143369.89, -143785.84, 58059.59, 0.00, 0.00, 0.00, 1486242224519
162, -143325.91, -143770.63, -143122.53, -143178.91, -143263.66, -143399.95, -143777.09, 58054.70, 0.00, 0.00, 0.00, 1486242224524
163, -143330.09, -143743.14, -143127.47, -143182.63, -143276.00, -143444.53, -143754.09, 58064.98, 0.02, -0.01, 1.03, 1486242224527
164, -143329.75, -143716.06, -143124.94, -143173.36, -143274.50, -143435.03, -143731.81, 58073.77, 0.00, 0.00, 0.00, 1486242224530
165, -143323.98, -143705.38, -143119.98, -143167.98, -143261.64, -143370.50, -143723.44, 58068.24, 0.00, 0.00, 0.00, 1486242224535
166, -143318.16, -143697.95, -143124.86, -143180.48, -143259.55, -143365.45, -143717.91, 58060.75, 0.00, 0.00, 0.00, 1486242224539
167, -143334.67, -143673.08, -143126.33, -143178.70, -143277.58, -143439.98, -143696.72, 58070.14, 0.00, 0.00, 0.00, 1486242224544
168, -143323.11, -143643.02, -143118.30, -143168.22, -143272.27, -143427.56, -143671.22, 58082.84, 0.00, 0.00, 0.00, 1486242224547
169, -143317.77, -143628.22, -143121.20, -143169.98, -143255.81, -143365.56, -143660.36, 58080.61, 0.00, 0.00, 0.00, 1486242224552
170, -143312.36, -143621.63, -143119.56, -143167.83, -143254.61, -143364.36, -143655.75, 58071.57, 0.00, 0.00, 0.00, 1486242224555
171, -143338.52, -143595.84, -143119.17, -143185.09, -143279.02, -143476.67, -143652.95, 58081.97, 0.00, 0.00, 0.00, 1486242224560
172, -143346.03, -143549.58, -143122.06, -143186.20, -143289.05, -143475.50, -143768.89, 58122.40, 0.00, 0.00, 0.00, 1486242224563
173, -143319.47, -143527.98, -143115.91, -143168.55, -143269.16, -143400.83, -143831.09, 58133.91, 0.00, 0.00, 0.00, 1486242224567
174, -143308.03, -143521.38, -143115.64, -143165.38, -143260.70, -143354.89, -143828.55, 58126.11, 0.02, -0.01, 1.03, 1486242224571
175, -143323.05, -143504.28, -143116.00, -143169.25, -143264.48, -143397.80, -143814.84, 58126.45, 0.00, 0.00, 0.00, 1486242224575
176, -143323.78, -143472.58, -143113.39, -143172.80, -143265.48, -143431.36, -143786.27, 58140.24, 0.00, 0.00, 0.00, 1486242224580
177, -143302.80, -143452.98, -143111.31, -143164.66, -143257.27, -143378.95, -143770.08, 58144.24, 0.00, 0.00, 0.00, 1486242224584
178, -143297.23, -143447.23, -143111.53, -143159.03, -143251.31, -143348.34, -143766.44, 58135.50, 0.00, 0.00, 0.00, 1486242224586
179, -143314.83, -143432.06, -143113.92, -143167.67, -143263.59, -143412.83, -143754.48, 58134.45, 0.00, 0.00, 0.00, 1486242224591
180, -143314.02, -143402.64, -143112.56, -143170.67, -143258.89, -143420.34, -143729.20, 58147.97, 0.00, 0.00, 0.00, 1486242224595
181, -143301.20, -143381.97, -143110.58, -143165.98, -143249.69, -143378.59, -143712.69, 58153.87, 0.00, 0.00, 0.00, 1486242224599
182, -143291.19, -143375.08, -143109.45, -143162.45, -143246.72, -143352.53, -143707.78, 58148.13, 0.00, 0.00, 0.00, 1486242224603
183, -143297.81, -143296.20, -143111.33, -143164.75, -143258.30, -143399.48, -143697.28, 58146.96, 0.00, 0.00, 0.00, 1486242224607
184, -143353.78, -142875.70, -143112.11, -143179.95, -143277.30, -143499.30, -143662.28, 58174.66, 0.01, -0.01, 1.04, 1486242224610
185, -143348.48, -142837.08, -143111.17, -143176.98, -143275.34, -143500.97, -143718.41, 58229.73, 0.00, 0.00, 0.00, 1486242224615
186, -143326.42, -143029.17, -143109.34, -143170.98, -143262.47, -143450.61, -143798.33, 58262.99, 0.00, 0.00, 0.00, 1486242224620
187, -143329.03, -143229.48, -143103.33, -143165.33, -143269.27, -143463.64, -143771.06, 58285.93, 0.00, 0.00, 0.00, 1486242224624
188, -143337.84, -143413.39, -143104.27, -143173.95, -143272.70, -143491.17, -143724.80, 58321.20, 0.00, 0.00, 0.00, 1486242224627
189, -143323.38, -143596.14, -143099.13, -143163.92, -143259.75, -143455.34, -143677.19, 58358.05, 0.00, 0.00, 0.00, 1486242224632
190, -143309.52, -143820.42, -143094.77, -143152.56, -143246.56, -143407.16, -143643.50, 58380.61, 0.00, 0.00, 0.00, 1486242224635
191, -143312.98, -144352.13, -143098.86, -143158.05, -143252.86, -143433.84, -143642.97, 58404.10, 0.00, 0.00, 0.00, 1486242224638
192, -143317.69, -144653.47, -143096.47, -143155.86, -143253.94, -143449.80, -143753.09, 58443.06, 0.00, 0.00, 0.00, 1486242224642
193, -143295.59, -144629.22, -143089.06, -143142.52, -143237.97, -143383.39, -143772.14, 58460.45, 0.00, 0.00, 0.00, 1486242224647
194, -143282.23, -144614.31, -143084.94, -143134.48, -143224.52, -143344.13, -143761.75, 58457.95, 0.02, -0.01, 1.03, 1486242224652
195, -143278.95, -144607.27, -143086.28, -143135.78, -143222.06, -143328.34, -143758.39, 58449.05, 0.00, 0.00, 0.00, 1486242224655
196, -143289.88, -144587.27, -143085.53, -143136.08, -143229.28, -143381.66, -143743.11, 58451.75, 0.00, 0.00, 0.00, 1486242224658
197, -143297.56, -144557.16, -143084.84, -143141.95, -143234.53, -143398.42, -143716.73, 58466.15, 0.00, 0.00, 0.00, 1486242224664
198, -143281.34, -144539.03, -143085.38, -143134.59, -143226.94, -143352.75, -143702.41, 58468.18, 0.00, 0.00, 0.00, 1486242224668
199, -143274.00, -144531.56, -143085.02, -143135.27, -143219.61, -143338.09, -143698.47, 58458.82, 0.00, 0.00, 0.00, 1486242224671
200, -143289.16, -144511.64, -143084.70, -143144.64, -143227.45, -143385.70, -143682.33, 58461.59, 0.00, 0.00, 0.00, 1486242224675
201, -143292.31, -144479.53, -143081.67, -143135.78, -143229.86, -143388.89, -143653.77, 58476.77, 0.00, 0.00, 0.00, 1486242224680
202, -143287.28, -144459.59, -143080.13, -143127.06, -143218.13, -143338.61, -143636.94, 58481.62, 0.00, 0.00, 0.00, 1486242224682
203, -143282.52, -144452.92, -143076.95, -143127.05, -143219.98, -143333.75, -143633.59, 58472.45, 0.00, 0.00, 0.00, 1486242224686
204, -143283.19, -144437.28, -143080.42, -143140.25, -143228.31, -143379.44, -143621.86, 58469.10, 0.01, -0.01, 1.04, 1486242224692
205, -143298.45, -144400.63, -143077.56, -143145.13, -143238.59, -143423.14, -143632.22, 58492.57, 0.00, 0.00, 0.00, 1486242224695
206, -143277.52, -144364.73, -143072.95, -143131.94, -143220.08, -143371.38, -143761.14, 58521.54, 0.00, 0.00, 0.00, 1486242224700
207, -143268.55, -144353.66, -143076.11, -143121.80, -143212.05, -143324.13, -143794.83, 58518.72, 0.00, 0.00, 0.00, 1486242224703
208, -143282.45, -144339.05, -143078.03, -143126.28, -143222.73, -143363.91, -143782.16, 58518.79, 0.00, 0.00, 0.00, 1486242224707
209, -143287.19, -144308.48, -143076.89, -143131.89, -143228.52, -143397.86, -143754.97, 58534.77, 0.00, 0.00, 0.00, 1486242224710
210, -143276.08, -144282.72, -143073.33, -143124.45, -143214.80, -143342.11, -143733.58, 58545.99, 0.00, 0.00, 0.00, 1486242224714
211, -143261.13, -144274.45, -143070.83, -143119.20, -143206.77, -143302.92, -143728.06, 58538.75, 0.00, 0.00, 0.00, 1486242224719
212, -143265.47, -144266.98, -143071.09, -143121.72, -143208.69, -143329.91, -143723.33, 58531.35, 0.00, 0.00, 0.00, 1486242224723
213, -143287.75, -144239.13, -143073.44, -143130.19, -143225.44, -143407.89, -143700.13, 58541.61, 0.00, 0.00, 0.00, 1486242224727
214, -143276.22, -144208.69, -143070.84, -143123.78, -143220.86, -143378.45, -143673.64, 58555.27, 0.02, -0.02, 1.03, 1486242224732
215, -143260.13, -144197.16, -143067.36, -143117.75, -143208.36, -143318.86, -143665.66, 58551.27, 0.00, 0.00, 0.00, 1486242224735
216, -143267.77, -144185.94, -143073.13, -143126.80, -143211.63, -143347.03, -143658.09, 58548.74, 0.00, 0.00, 0.00, 1486242224739
217, -143289.16, -144160.80, -143072.86, -143128.14, -143222.11, -143382.48, -143636.47, 58559.02, 0.00, 0.00, 0.00, 1486242224743
218, -143279.55, -144129.91, -143072.02, -143127.36, -143221.09, -143372.78, -143608.88, 58573.35, 0.00, 0.00, 0.00, 1486242224748
219, -143268.16, -144112.73, -143068.13, -143121.05, -143218.55, -143349.41, -143610.53, 58577.19, 0.00, 0.00, 0.00, 1486242224751
220, -143272.63, -144094.45, -143070.58, -143128.19, -143218.55, -143361.83, -143730.00, 58589.80, 0.00, 0.00, 0.00, 1486242224755
221, -143272.78, -144069.59, -143070.45, -143122.95, -143217.14, -143360.86, -143772.39, 58602.56, 0.00, 0.00, 0.00, 1486242224759
222, -143274.70, -144039.80, -143068.28, -143121.28, -143217.45, -143369.77, -143747.17, 58616.78, 0.00, 0.00, 0.00, 1486242224762
223, -143265.88, -144022.55, -143064.81, -143114.06, -143206.14, -143346.78, -143733.17, 58618.23, 0.00, 0.00, 0.00, 1486242224766
224, -143264.38, -144011.92, -143067.50, -143119.11, -143206.59, -143335.73, -143725.00, 58613.36, 0.01, -0.02, 1.04, 1486242224770
225, -143270.59, -143994.41, -143067.13, -143122.48, -143211.25, -143347.77, -143709.63, 58615.79, 0.00, 0.00, 0.00, 1486242224774
226, -143275.17, -143962.17, -143070.31, -143125.97, -143216.61, -143373.63, -143680.89, 58631.17, 0.00, 0.00, 0.00, 1486242224780
227, -143255.44, -143944.02, -143060.92, -143106.39, -143203.53, -143313.39, -143665.88, 58635.80, 0.00, 0.00, 0.00, 1486242224783
228, -143251.36, -143939.39, -143059.41, -143108.88, -143199.42, -143300.20, -143665.75, 58625.50, 0.00, 0.00, 0.00, 1486242224786
229, -143267.44, -143924.33, -143063.03, -143114.69, -143204.73, -143357.45, -143654.39, 58623.68, 0.00, 0.00, 0.00, 1486242224791
230, -143269.14, -143895.03, -143059.45, -143116.92, -143213.25, -143380.11, -143628.89, 58637.21, 0.00, 0.00, 0.00, 1486242224794
231, -143251.23, -143872.05, -143055.36, -143104.52, -143203.23, -143327.89, -143609.42, 58645.28, 0.00, 0.00, 0.00, 1486242224798
232, -143251.23, -143862.73, -143058.94, -143103.38, -143198.19, -143321.50, -143602.13, 58640.11, 0.00, 0.00, 0.00, 1486242224802
233, -143271.30, -143847.02, -143060.80, -143119.78, -143206.70, -143351.33, -143594.89, 58642.28, 0.00, 0.00, 0.00, 1486242224807
234, -143293.00, -143802.27, -143065.33, -143137.30, -143231.16, -143457.42, -143683.48, 58680.28, 0.01, -0.02, 1.05, 1486242224812
235, -143261.95, -143767.95, -143055.88, -143111.59, -143203.20, -143346.22, -143769.81, 58702.30, 0.00, 0.00, 0.00, 1486242224815
236, -143251.77, -143759.95, -143053.59, -143105.14, -143193.58, -143308.05, -143771.59, 58694.41, 0.00, 0.00, 0.00, 1486242224819
237, -143250.11, -143750.86, -143058.11, -143108.67, -143193.11, -143306.80, -143764.66, 58689.49, 0.00, 0.00, 0.00, 1486242224823
238, -143264.55, -143724.55, -143056.50, -143116.56, -143206.64, -143376.00, -143740.98, 58703.41, 0.00, 0.00, 0.00, 1486242224826
239, -143261.17, -143695.47, -143054.33, -143115.91, -143196.56, -143340.55, -143715.94, 58717.00, 0.00, 0.00, 0.00, 1486242224831
240, -143245.89, -143681.77, -143051.73, -143105.42, -143193.58, -143314.03, -143705.44, 58715.37, 0.00, 0.00, 0.00, 1486242224835
241, -143246.45, -143674.55, -143055.23, -143102.45, -143190.67, -143298.59, -143701.06, 58709.89, 0.00, 0.00, 0.00, 1486242224839
242, -143269.63, -143650.83, -143055.89, -143109.08, -143208.94, -143378.84, -143680.30, 58717.45, 0.00, 0.00, 0.00, 1486242224842
243, -143262.61, -143620.34, -143049.73, -143103.38, -143205.86, -143366.52, -143652.94, 58732.49, 0.00, 0.00, 0.00, 1486242224846
244, -143241.73, -143607.88, -143046.13, -143097.25, -143194.61, -143300.19, -143645.45, 58730.12, 0.01, -0.02, 1.04, 1486242224851
245, -143245.31, -143601.59, -143047.27, -143102.38, -143193.27, -143300.63, -143641.89, 58723.69, 0.00, 0.00, 0.00, 1486242224854
246, -143256.22, -143580.98, -143050.63, -143103.86, -143194.53, -143349.44, -143624.64, 58730.68, 0.00, 0.00, 0.00, 1486242224858
247, -143255.72, -143550.86, -143046.02, -143103.06, -143193.78, -143350.47, -143598.48, 58743.94, 0.00, 0.00, 0.00, 1486242224863
248, -143252.39, -143530.25, -143045.91, -143100.13, -143197.45, -143338.80, -143579.73, 58750.11, 0.00, 0.00, 0.00, 1486242224867
249, -143249.11, -143512.86, -143046.27, -143103.48, -143195.11, -143334.48, -143646.08, 58758.13, 0.00, 0.00, 0.00, 1486242224871
250, -143252.70, -143485.67, -143046.36, -143109.50, -143194.69, -143359.09, -143745.38, 58774.27, 0.00, 0.00, 0.00, 1486242224875
251, -143253.00, -143453.11, -143045.22, -143108.41, -143193.27, -143351.70, -143727.66, 58789.20, 0.00, 0.00, 0.00, 1486242224878
252, -143245.16, -143434.14, -143047.11, -143102.66, -143188.53, -143312.05, -143711.78, 58791.25, 0.00, 0.00, 0.00, 1486242224883
253, -143242.11, -143427.34, -143047.89, -143094.41, -143187.58, -143292.09, -143707.97, 58781.71, 0.00, 0.00, 0.00, 1486242224886
254, -143250.22, -143413.17, -143043.41, -143100.80, -143194.69, -143333.55, -143697.17, 58778.87, 0.02, -0.02, 1.04, 1486242224891
255, -143250.78, -143383.39, -143042.73, -143107.19, -143198.23, -143363.45, -143670.69, 58792.55, 0.00, 0.00, 0.00, 1486242224896
0, -143243.70, -143358.31, -143043.81, -143102.97, -143186.08, -143327.06, -143648.83, 58801.87, 0.00, 0.00, 0.00, 1486242224898
1, -143230.11, -143349.83, -143042.22, -143090.00, -143178.78, -143283.19, -143642.56, 58795.79, 0.00, 0.00, 0.00, 1486242224903
2, -143232.67, -143338.31, -143042.05, -143100.09, -143188.95, -143317.75, -143634.19, 58793.31, 0.00, 0.00, 0.00, 1486242224907
3, -143241.70, -143256.50, -143047.94, -143103.78, -143198.06, -143370.81, -143609.64, 58807.46, 0.00, 0.00, 0.00, 1486242224910
4, -143270.59, -142850.69, -143045.81, -143101.63, -143203.11, -143383.55, -143580.14, 58827.80, 0.00, 0.00, 0.00, 1486242224915
5, -143266.05, -142800.39, -143042.39, -143107.98, -143197.66, -143380.25, -143646.91, 58865.80, 0.00, 0.00, 0.00, 1486242224918
6, -143257.80, -142993.14, -143038.27, -143100.58, -143195.97, -143381.55, -143724.73, 58899.37, 0.00, 0.00, 0.00, 1486242224924
7, -143271.97, -143176.31, -143035.67, -143102.75, -143198.64, -143418.36, -143684.00, 58934.86, 0.00, 0.00, 0.00, 1486242224927
8, -143264.00, -143352.66, -143037.44, -143098.36, -143195.48, -143412.00, -143632.02, 58974.16, 0.01, -0.02, 1.03, 1486242224930
9, -143243.50, -143550.97, -143034.44, -143089.06, -143177.31, -143347.70, -143597.77, 58997.00, 0.00, 0.00, 0.00, 1486242224935
10, -143252.64, -143767.36, -143032.45, -143096.31, -143185.88, -143379.78, -143566.69, 59018.53, 0.00, 0.00, 0.00, 1486242224938
11, -143267.02, -144243.30, -143029.56, -143098.48, -143195.81, -143429.34, -143615.31, 59070.05, 0.00, 0.00, 0.00, 1486242224942
12, -143232.56, -144597.61, -143022.30, -143076.94, -143169.78, -143336.23, -143719.20, 59107.20, 0.00, 0.00, 0.00, 1486242224947
13, -143210.33, -144598.06, -143018.66, -143067.19, -143158.30, -143273.22, -143722.52, 59105.01, 0.00, 0.00, 0.00, 1486242224952
14, -143213.55, -144589.31, -143021.08, -143073.16, -143160.86, -143289.98, -143717.28, 59095.17, 0.00, 0.00, 0.00, 1486242224955
15, -143228.31, -144567.41, -143020.41, -143080.53, -143167.98, -143316.30, -143698.33, 59100.11, 0.00, 0.00, 0.00, 1486242224959
16, -143234.94, -144534.52, -143019.23, -143080.28, -143169.47, -143323.98, -143669.88, 59115.96, 0.00, 0.00, 0.00, 1486242224963
17, -143222.75, -144515.41, -143019.22, -143065.28, -143162.38, -143287.84, -143654.52, 59119.78, 0.00, 0.00, 0.00, 1486242224966
18, -143210.34, -144507.83, -143020.89, -143071.14, -143152.91, -143266.27, -143650.00, 59112.00, 0.02, -0.01, 1.04, 1486242224970
19, -143216.41, -144491.28, -143020.25, -143068.95, -143160.59, -143299.11, -143637.63, 59112.05, 0.00, 0.00, 0.00, 1486242224975
20, -143232.72, -144460.92, -143020.92, -143074.97, -143177.58, -143365.52, -143611.36, 59125.91, 0.00, 0.00, 0.00, 1486242224980
21, -143209.48, -144438.80, -143015.00, -143062.92, -143160.30, -143282.44, -143593.92, 59132.45, 0.00, 0.00, 0.00, 1486242224983
22, -143201.77, -144432.14, -143011.28, -143062.42, -143152.45, -143251.36, -143591.31, 59122.84, 0.00, 0.00, 0.00, 1486242224986
23, -143217.52, -144417.48, -143013.39, -143073.67, -143159.45, -143301.03, -143579.27, 59121.39, 0.00, 0.00, 0.00, 1486242224999
24, -143228.20, -144384.13, -143010.61, -143076.47, -143163.75, -143328.08, -143557.47, 59141.13, 0.00, 0.00, 0.00, 1486242224999
25, -143220.19, -144346.42, -143011.39, -143071.77, -143166.58, -143335.41, -143651.89, 59171.57, 0.00, 0.00, 0.00, 1486242224999
26, -143203.89, -144330.70, -143015.42, -143057.47, -143154.67, -143269.73, -143726.61, 59174.90, 0.00, 0.00, 0.00, 1486242225003
27, -143204.56, -144320.42, -143005.50, -143054.52, -143152.39, -143263.09, -143721.88, 59168.06, 0.00, 0.00, 0.00, 1486242225007
28, -143220.72, -144294.44, -143009.45, -143067.30, -143159.70, -143324.00, -143699.05, 59178.25, 0.02, -0.01, 1.03, 1486242225011
29, -143212.52, -144266.52, -143011.28, -143064.25, -143159.91, -143322.17, -143674.75, 59191.89, 0.00, 0.00, 0.00, 1486242225014
30, -143200.89, -144255.38, -143005.50, -143052.41, -143146.13, -143248.77, -143666.77, 59187.66, 0.00, 0.00, 0.00, 1486242225019
31, -143202.75, -144245.97, -143007.73, -143057.02, -143148.14, -143264.00, -143660.20, 59180.64, 0.00, 0.00, 0.00, 1486242225023
32, -143223.77, -144217.30, -143009.09, -143068.42, -143160.30, -143335.89, -143635.20, 59192.47, 0.00, 0.00, 0.00, 1486242225027
33, -143204.36, -144187.97, -143001.14, -143055.31, -143148.02, -143282.88, -143609.97, 59204.05, 0.00, 0.00, 0.00, 1486242225031
34, -143201.30, -144175.09, -143000.56, -143055.27, -143148.41, -143268.78, -143600.36, 59200.94, 0.00, 0.00, 0.00, 1486242225036
35, -143193.81, -144167.88, -142998.13, -143051.42, -143143.47, -143243.16, -143595.78, 59194.26, 0.00, 0.00, 0.00, 1486242225039
36, -143209.67, -144147.84, -143002.75, -143058.95, -143151.72, -143304.19, -143579.31, 59197.07, 0.00, 0.00, 0.00, 1486242225043
37, -143212.67, -144117.27, -143006.25, -143057.78, -143150.31, -143309.92, -143553.05, 59211.64, 0.00, 0.00, 0.00, 1486242225046
38, -143202.30, -144100.06, -142999.70, -143051.20, -143141.11, -143267.91, -143539.97, 59214.22, 0.01, -0.01, 1.03, 1486242225051
39, -143194.23, -144092.89, -142997.69, -143054.11, -143138.83, -143251.47, -143535.52, 59207.22, 0.00, 0.00, 0.00, 1486242225055
40, -143216.39, -144063.09, -143003.30, -143063.92, -143160.73, -143341.02, -143556.11, 59226.29, 0.00, 0.00, 0.00, 1486242225058
41, -143219.33, -144018.30, -143000.11, -143059.11, -143158.78, -143362.31, -143668.61, 59262.27, 0.00, 0.00, 0.00, 1486242225064
42, -143190.55, -143997.39, -142995.38, -143045.48, -143131.20, -143245.67, -143684.83, 59266.63, 0.00, 0.00, 0.00, 1486242225067
43, -143186.00, -143990.69, -142999.55, -143051.31, -143130.19, -143235.88, -143681.23, 59256.75, 0.00, 0.00, 0.00, 1486242225070
44, -143206.55, -143975.05, -142998.09, -143055.70, -143146.95, -143291.95, -143668.31, 59257.42, 0.00, 0.00, 0.00, 1486242225074
45, -143216.94, -143942.45, -143000.69, -143064.33, -143158.89, -143343.30, -143638.70, 59275.41, 0.00, 0.00, 0.00, 1486242225078
46, -143193.23, -143918.14, -142998.50, -143056.95, -143143.50, -143265.56, -143618.25, 59283.93, 0.00, 0.00, 0.00, 1486242225083
47, -143180.55, -143911.05, -143000.47, -143050.53, -143138.08, -143238.52, -143613.47, 59276.45, 0.00, 0.00, 0.00, 1486242225087
48, -143193.14, -143897.08, -142995.95, -143050.17, -143137.75, -143268.23, -143602.27, 59274.61, 0.02, -0.01, 1.04, 1486242225090
49, -143209.75, -143867.53, -142995.17, -143051.66, -143146.20, -143319.52, -143576.78, 59288.58, 0.00, 0.00, 0.00, 1486242225095
50, -143198.53, -143842.80, -142990.91, -143044.61, -143136.78, -143276.78, -143555.66, 59298.01, 0.00, 0.00, 0.00, 1486242225098
51, -143182.28, -143834.75, -142992.03, -143045.61, -143125.61, -143222.03, -143550.14, 59290.88, 0.00, 0.00, 0.00, 1486242225103
52, -143182.91, -143826.61, -142989.89, -143042.36, -143134.58, -143258.03, -143544.78, 59285.07, 0.00, 0.00, 0.00, 1486242225106
53, -143202.50, -143797.34, -142990.31, -143052.48, -143146.44, -143320.03, -143525.17, 59299.62, 0.00, 0.00, 0.00, 1486242225111
54, -143206.77, -143756.27, -142988.94, -143048.91, -143151.08, -143350.67, -143616.23, 59336.13, 0.00, 0.00, 0.00, 1486242225115
55, -143178.47, -143737.67, -142984.73, -143035.80, -143125.86, -143251.44, -143710.41, 59345.71, 0.00, 0.00, 0.00, 1486242225117
56, -143179.17, -143726.89, -142986.56, -143042.20, -143125.09, -143239.52, -143706.94, 59343.45, 0.00, 0.00, 0.00, 1486242225122
57, -143193.39, -143700.34, -142988.16, -143052.34, -143136.78, -143301.25, -143683.27, 59355.03, 0.00, 0.00, 0.00, 1486242225126
58, -143192.16, -143670.03, -142984.53, -143045.27, -143131.89, -143299.36, -143656.13, 59369.88, 0.02, -0.01, 1.04, 1486242225131
59, -143182.61, -143656.42, -142984.16, -143042.59, -143118.42, -143238.73, -143645.41, 59369.20, 0.00, 0.00, 0.00, 1486242225135
60, -143176.17, -143650.36, -142984.81, -143038.03, -143121.50, -143236.77, -143642.61, 59360.11, 0.00, 0.00, 0.00, 1486242225139
61, -143192.75, -143628.19, -142984.95, -143046.52, -143136.08, -143306.34, -143624.17, 59366.21, 0.00, 0.00, 0.00, 1486242225144
62, -143189.72, -143596.52, -142985.42, -143049.86, -143134.44, -143284.48, -143596.23, 59382.53, 0.00, 0.00, 0.00, 1486242225145
63, -143176.47, -143578.84, -142984.55, -143038.08, -143127.77, -143255.44, -143581.92, 59385.23, 0.00, 0.00, 0.00, 1486242225150
64, -143170.20, -143571.75, -142980.33, -143027.27, -143119.80, -143223.17, -143577.28, 59377.61, 0.00, 0.00, 0.00, 1486242225154
65, -143191.86, -143551.80, -142985.48, -143038.47, -143137.66, -143292.89, -143560.28, 59383.02, 0.00, 0.00, 0.00, 1486242225158
66, -143181.25, -143520.45, -142979.33, -143030.91, -143128.41, -143267.28, -143533.83, 59396.81, 0.00, 0.00, 0.00, 1486242225162
67, -143178.59, -143503.09, -142976.69, -143027.11, -143119.59, -143245.53, -143520.02, 59396.61, 0.00, 0.00, 0.00, 1486242225167
68, -143170.94, -143498.03, -142977.42, -143026.81, -143116.52, -143218.48, -143517.50, 59386.13, 0.02, -0.01, 1.04, 1486242225170
69, -143186.36, -143479.47, -142981.47, -143036.59, -143133.06, -143296.77, -143511.77, 59392.00, 0.00, 0.00, 0.00, 1486242225175
70, -143206.23, -143432.22, -142982.58, -143049.14, -143147.42, -143362.55, -143609.06, 59433.89, 0.00, 0.00, 0.00, 1486242225177
71, -143177.30, -143401.56, -142974.38, -143030.97, -143121.45, -143259.64, -143688.52, 59452.91, 0.00, 0.00, 0.00, 1486242225182
72, -143162.19, -143393.44, -142973.73, -143026.50, -143112.20, -143213.14, -143686.47, 59445.33, 0.00, 0.00, 0.00, 1486242225186
73, -143178.05, -143380.53, -142978.31, -143031.38, -143121.81, -143257.58, -143676.03, 59444.44, 0.00, 0.00, 0.00, 1486242225191
74, -143183.48, -143349.69, -142975.77, -143034.48, -143133.55, -143314.03, -143649.36, 59457.80, 0.00, 0.00, 0.00, 1486242225195
75, -143167.33, -143325.80, -142976.23, -143033.13, -143113.88, -143237.28, -143628.77, 59464.31, 0.00, 0.00, 0.00, 1486242225199
76, -143157.28, -143318.86, -142979.23, -143028.30, -143112.25, -143216.86, -143624.70, 59456.67, 0.00, 0.00, 0.00, 1486242225202
77, -143161.39, -143308.61, -142977.13, -143023.98, -143117.81, -143231.27, -143618.47, 59450.96, 0.00, 0.00, 0.00, 1486242225206
78, -143169.75, -143283.44, -142970.05, -143028.39, -143124.72, -143282.92, -143596.45, 59458.68, 0.00, 0.00, 0.00, 1486242225210
79, -143161.08, -143255.66, -142970.06, -143028.39, -143117.86, -143271.30, -143572.61, 59469.63, 0.02, -0.01, 1.04, 1486242225215
80, -143154.92, -143240.88, -142973.36, -143029.88, -143113.61, -143246.58, -143561.72, 59468.89, 0.00, 0.00, 0.00, 1486242225219
81, -143152.72, -143220.23, -142970.63, -143020.30, -143108.30, -143214.53, -143554.47, 59463.08, 0.00, 0.00, 0.00, 1486242225222
82, -143189.42, -142903.17, -142975.08, -143038.11, -143130.06, -143318.48, -143528.22, 59475.44, 0.00, 0.00, 0.00, 1486242225227
83, -143207.27, -142660.56, -142971.50, -143035.95, -143138.08, -143371.22, -143530.47, 59522.65, 0.00, 0.00, 0.00, 1486242225230
84, -143181.16, -142829.41, -142963.03, -143019.05, -143116.06, -143291.27, -143639.22, 59564.36, 0.00, 0.00, 0.00, 1486242225234
85, -143177.42, -143035.61, -142961.78, -143022.23, -143120.16, -143293.77, -143637.64, 59585.34, 0.00, 0.00, 0.00, 1486242225238
86, -143195.64, -143221.56, -142964.92, -143035.20, -143130.48, -143359.33, -143591.61, 59621.20, 0.00, 0.00, 0.00, 1486242225242
87, -143185.30, -143400.55, -142959.00, -143022.34, -143116.52, -143318.11, -143538.83, 59660.89, 0.00, 0.00, 0.00, 1486242225247
88, -143173.89, -143593.81, -142955.89, -143012.77, -143110.14, -143294.25, -143497.80, 59688.27, 0.00, 0.00, 0.00, 1486242225251
89, -143169.88, -143982.92, -142952.80, -143015.67, -143108.41, -143296.63, -143506.20, 59714.16, 0.02, -0.01, 1.04, 1486242225255
90, -143167.95, -144480.22, -142951.19, -143012.95, -143107.17, -143290.80, -143624.08, 59751.26, 0.00, 0.00, 0.00, 1486242225257
91, -143153.39, -144509.31, -142944.19, -143003.42, -143097.36, -143250.45, -143635.13, 59768.85, 0.00, 0.00, 0.00, 1486242225262
92, -143136.78, -144491.38, -142944.19, -142992.31, -143087.50, -143216.39, -143621.11, 59769.41, 0.00, 0.00, 0.00, 1486242225266
93, -143131.11, -144484.38, -142945.53, -142995.02, -143082.78, -143187.95, -143617.67, 59759.58, 0.00, 0.00, 0.00, 1486242225270
94, -143143.41, -144467.67, -142945.03, -143002.48, -143091.89, -143234.63, -143604.91, 59758.59, 0.00, 0.00, 0.00, 1486242225275
95, -143154.95, -144435.17, -142943.63, -143005.72, -143103.23, -143271.41, -143577.14, 59773.23, 0.00, 0.00, 0.00, 1486242225279
96, -143140.80, -144409.86, -142942.84, -142991.55, -143086.61, -143207.11, -143555.95, 59782.46, 0.00, 0.00, 0.00, 1486242225283
97, -143129.25, -144402.23, -142940.00, -142991.14, -143083.25, -143183.75, -143552.00, 59774.08, 0.00, 0.00, 0.00, 1486242225285
98, -143141.34, -144388.95, -142944.19, -142999.89, -143088.95, -143223.27, -143541.88, 59771.87, 0.00, 0.00, 0.00, 1486242225290
99, -143151.78, -144358.53, -142949.14, -143000.78, -143093.83, -143260.02, -143515.67, 59785.64, 0.02, -0.01, 1.04, 1486242225294
100, -143130.06, -144335.78, -142939.05, -142985.25, -143081.31, -143212.41, -143496.61, 59791.99, 0.00, 0.00, 0.00, 1486242225298
101, -143126.63, -144328.72, -142938.38, -142987.84, -143075.23, -143176.58, -143492.47, 59783.54, 0.00, 0.00, 0.00, 1486242225302
102, -143145.27, -144314.97, -142945.34, -142995.38, -143090.81, -143238.16, -143482.23, 59782.53, 0.00, 0.00, 0.00, 1486242225307
103, -143165.13, -144275.97, -142944.08, -143006.20, -143104.78, -143307.28, -143520.88, 59814.12, 0.00, 0.00, 0.00, 1486242225311
104, -143151.63, -144233.59, -142940.30, -142999.77, -143096.41, -143275.86, -143630.86, 59850.23, 0.00, 0.00, 0.00, 1486242225315
105, -143133.77, -144219.34, -142938.33, -142982.25, -143080.69, -143196.02, -143640.03, 59851.22, 0.00, 0.00, 0.00, 1486242225317
106, -143128.86, -144211.17, -142933.86, -142985.77, -143077.27, -143181.42, -143635.25, 59842.68, 0.00, 0.00, 0.00, 1486242225322
107, -143139.73, -144188.06, -142933.72, -142997.09, -143085.00, -143240.97, -143615.36, 59848.22, 0.00, 0.00, 0.00, 1486242225326
108, -143136.25, -144159.73, -142936.72, -142997.27, -143083.77, -143230.58, -143591.27, 59860.16, 0.00, 0.00, 0.00, 1486242225331
109, -143122.69, -144146.53, -142935.17, -142983.08, -143076.95, -143188.42, -143581.25, 59858.62, 0.02, -0.02, 1.04, 1486242225335
110, -143123.73, -144140.30, -142935.47, -142980.39, -143074.97, -143188.17, -143577.03, 59850.68, 0.00, 0.00, 0.00, 1486242225339
111, -143143.38, -144118.45, -142938.55, -142991.14, -143082.70, -143244.38, -143557.89, 59856.50, 0.00, 0.00, 0.00, 1486242225342
112, -143141.23, -144085.80, -142937.66, -142990.63, -143082.09, -143251.55, -143529.23, 59873.04, 0.00, 0.00, 0.00, 1486242225346
113, -143119.17, -144069.42, -142929.83, -142974.63, -143066.22, -143174.34, -143517.22, 59872.99, 0.00, 0.00, 0.00, 1486242225350
114, -143121.88, -144062.89, -142929.98, -142982.94, -143068.13, -143177.69, -143514.31, 59863.73, 0.00, 0.00, 0.00, 1486242225354
115, -143139.36, -144044.19, -142932.97, -142989.16, -143083.92, -143242.11, -143498.23, 59866.55, 0.00, 0.00, 0.00, 1486242225358
116, -143137.91, -144013.78, -142930.66, -142987.13, -143082.77, -143249.44, -143472.47, 59880.39, 0.00, 0.00, 0.00, 1486242225363
117, -143125.97, -143993.48, -142926.80, -142982.11, -143078.11, -143221.02, -143459.64, 59887.65, 0.00, 0.00, 0.00, 1486242225367
118, -143128.78, -143974.28, -142927.47, -142985.44, -143071.70, -143210.02, -143558.92, 59901.40, 0.00, 0.00, 0.00, 1486242225370
119, -143139.22, -143950.13, -142930.73, -142991.41, -143081.14, -143238.52, -143640.11, 59914.18, 0.02, -0.02, 1.04, 1486242225375
120, -143142.11, -143917.22, -142929.28, -142992.39, -143087.77, -143266.20, -143614.41, 59930.46, 0.00, 0.00, 0.00, 1486242225378
121, -143120.77, -143894.64, -142926.58, -142982.72, -143069.28, -143197.83, -143594.69, 59937.34, 0.00, 0.00, 0.00, 1486242225382
122, -143116.98, -143887.83, -142927.59, -142975.59, -143063.16, -143163.16, -143590.48, 59928.55, 0.00, 0.00, 0.00, 1486242225386
123, -143118.48, -143875.73, -142927.83, -142974.19, -143070.31, -143200.41, -143581.44, 59925.27, 0.00, 0.00, 0.00, 1486242225392
124, -143136.41, -143847.70, -142927.05, -142979.91, -143080.27, -143252.59, -143556.63, 59937.07, 0.00, 0.00, 0.00, 1486242225395
125, -143125.75, -143821.11, -142924.56, -142974.09, -143075.86, -143215.48, -143533.28, 59948.14, 0.00, 0.00, 0.00, 1486242225399
126, -143116.61, -143811.80, -142922.34, -142967.09, -143059.98, -143164.77, -143526.72, 59942.28, 0.00, 0.00, 0.00, 1486242225403
127, -143116.63, -143801.28, -142928.36, -142972.86, -143066.27, -143193.30, -143519.14, 59936.94, 0.00, 0.00, 0.00, 1486242225406
128, -143135.73, -143771.94, -142923.28, -142982.50, -143076.13, -143250.05, -143493.70, 59948.81, 0.00, 0.00, 0.00, 1486242225410
129, -143115.67, -143743.91, -142914.97, -142971.50, -143059.83, -143186.09, -143469.45, 59960.77, 0.02, -0.02, 1.04, 1486242225414
130, -143111.67, -143733.20, -142918.19, -142968.61, -143059.41, -143178.78, -143461.30, 59957.01, 0.00, 0.00, 0.00, 1486242225419
131, -143112.73, -143724.11, -142920.14, -142971.78, -143063.81, -143186.66, -143454.20, 59952.27, 0.00, 0.00, 0.00, 1486242225423
132, -143139.50, -143692.52, -142924.67, -142985.05, -143082.83, -143288.00, -143486.13, 59973.66, 0.00, 0.00, 0.00, 1486242225426
133, -143130.55, -143649.34, -142919.42, -142979.64, -143067.92, -143236.95, -143607.66, 60008.00, 0.00, 0.00, 0.00, 1486242225430
134, -143108.36, -143633.47, -142918.55, -142962.67, -143058.73, -143181.38, -143625.52, 60007.82, 0.00, 0.00, 0.00, 1486242225434
135, -143109.55, -143625.88, -142914.52, -142961.50, -143060.69, -143179.95, -143620.66, 59999.10, 0.00, 0.00, 0.00, 1486242225439
136, -143121.44, -143602.67, -142912.44, -142972.91, -143066.30, -143215.09, -143600.09, 60006.50, 0.00, 0.00, 0.00, 1486242225442
137, -143122.75, -143570.53, -142915.64, -142975.19, -143062.98, -143224.81, -143571.75, 60022.72, 0.00, 0.00, 0.00, 1486242225447
138, -143101.55, -143552.89, -142909.50, -142960.39, -143055.34, -143191.23, -143557.53, 60025.18, 0.00, 0.00, 0.00, 1486242225450
139, -143095.19, -143546.91, -142908.83, -142963.63, -143047.67, -143148.72, -143554.70, 60015.80, 0.02, -0.02, 1.04, 1486242225453
140, -143114.84, -143530.78, -142912.11, -142965.80, -143054.72, -143189.19, -143541.59, 60015.55, 0.00, 0.00, 0.00, 1486242225458
141, -143127.11, -143498.33, -142913.98, -142979.64, -143075.61, -143265.72, -143512.44, 60032.13, 0.00, 0.00, 0.00, 1486242225463
142, -143106.34, -143476.38, -142913.41, -142964.19, -143054.09, -143173.41, -143494.34, 60037.77, 0.00, 0.00, 0.00, 1486242225466
143, -143102.28, -143469.83, -142911.94, -142957.30, -143049.64, -143158.34, -143491.20, 60029.83, 0.00, 0.00, 0.00, 1486242225470
144, -143112.94, -143453.36, -142912.84, -142964.23, -143057.80, -143206.28, -143477.41, 60032.94, 0.00, 0.00, 0.00, 1486242225476
145, -143132.45, -143418.42, -142918.25, -142980.94, -143070.03, -143260.30, -143453.89, 60054.48, 0.00, 0.00, 0.00, 1486242225478
146, -143105.50, -143382.45, -142906.61, -142962.09, -143050.31, -143183.02, -143549.47, 60083.81, 0.00, 0.00, 0.00, 1486242225482
147, -143098.03, -143371.69, -142903.86, -142953.34, -143045.22, -143158.58, -143629.53, 60082.94, 0.00, 0.00, 0.00, 1486242225486
148, -143106.81, -143359.39, -142906.86, -142958.33, -143055.92, -143199.59, -143622.47, 60080.73, 0.00, 0.00, 0.00, 1486242225490
149, -143116.45, -143329.66, -142913.31, -142971.41, -143060.02, -143225.86, -143596.50, 60094.72, 0.02, -0.01, 1.03, 1486242225494
150, -143099.81, -143304.16, -142903.13, -142956.44, -143047.06, -143189.89, -143573.91, 60104.15, 0.00, 0.00, 0.00, 1486242225499
151, -143096.28, -143295.31, -142904.17, -142949.59, -143044.14, -143157.94, -143566.91, 60098.96, 0.00, 0.00, 0.00, 1486242225503
152, -143099.23, -143282.72, -142908.31, -142956.25, -143047.36, -143179.41, -143557.84, 60095.28, 0.00, 0.00, 0.00, 1486242225506
153, -143110.44, -143253.48, -142906.13, -142959.67, -143054.58, -143220.66, -143532.70, 60108.96, 0.00, 0.00, 0.00, 1486242225510
154, -143094.44, -143227.33, -142898.14, -142947.78, -143045.86, -143179.84, -143509.92, 60120.45, 0.00, 0.00, 0.00, 1486242225514
155, -143079.53, -143216.88, -142895.56, -142946.69, -143040.03, -143166.30, -143502.16, 60116.38, 0.00, 0.00, 0.00, 1486242225518
156, -143084.38, -143210.39, -142896.73, -142952.80, -143036.59, -143143.73, -143498.64, 60107.32, 0.00, 0.00, 0.00, 1486242225522
157, -143097.19, -143187.42, -142898.98, -142962.41, -143050.94, -143208.31, -143480.11, 60114.86, 0.00, 0.00, 0.00, 1486242225526
158, -143082.36, -143152.84, -142896.58, -142953.03, -143047.61, -143204.20, -143453.98, 60129.95, 0.00, 0.00, 0.00, 1486242225530
159, -143091.30, -142896.02, -142895.34, -142944.11, -143038.39, -143167.25, -143439.13, 60132.58, 0.01, -0.01, 1.04, 1486242225534
160, -143136.75, -142610.73, -142897.83, -142965.02, -143065.52, -143266.42, -143450.89, 60156.81, 0.00, 0.00, 0.00, 1486242225537
161, -143144.66, -142742.17, -142904.08, -142976.73, -143077.69, -143332.33, -143551.53, 60211.64, 0.00, 0.00, 0.00, 1486242225542
162, -143134.20, -142912.88, -142900.89, -142964.97, -143062.56, -143274.66, -143535.16, 60258.67, 0.00, 0.00, 0.00, 1486242225546
163, -143090.50, -143111.16, -142890.05, -142943.84, -143038.11, -143186.75, -143498.73, 60283.95, 0.00, 0.00, 0.00, 1486242225550
164, -143092.58, -143323.06, -142885.28, -142940.39, -143032.31, -143188.83, -143473.77, 60299.02, 0.00, 0.00, 0.00, 1486242225554
165, -143119.67, -143515.78, -142887.56, -142953.86, -143049.34, -143281.25, -143433.58, 60330.95, 0.00, 0.00, 0.00, 1486242225558
166, -143133.75, -143743.80, -142889.05, -142961.00, -143054.94, -143313.23, -143460.22, 60392.11, 0.00, 0.00, 0.00, 1486242225563
167, -143080.64, -144301.73, -142878.14, -142929.47, -143027.17, -143202.91, -143574.84, 60431.98, 0.00, 0.00, 0.00, 1486242225565
168, -143070.00, -144497.09, -142873.02, -142922.45, -143010.17, -143120.77, -143586.31, 60428.70, 0.00, 0.00, 0.00, 1486242225569
169, -143073.36, -144481.45, -142871.39, -142928.03, -143016.63, -143150.42, -143574.55, 60428.59, 0.02, -0.01, 1.04, 1486242225574
170, -143084.44, -144449.31, -142878.69, -142936.73, -143030.81, -143203.52, -143547.23, 60443.47, 0.00, 0.00, 0.00, 1486242225578
171, -143076.31, -144422.17, -142879.92, -142934.64, -143024.03, -143170.36, -143524.41, 60454.58, 0.00, 0.00, 0.00, 1486242225583
172, -143058.52, -144415.27, -142870.11, -142917.41, -143011.73, -143116.22, -143521.00, 60445.24, 0.00, 0.00, 0.00, 1486242225586
173, -143071.14, -144403.16, -142872.84, -142926.23, -143017.91, -143157.05, -143511.41, 60441.86, 0.00, 0.00, 0.00, 1486242225590
174, -143081.45, -144373.11, -142871.20, -142931.44, -143023.36, -143190.86, -143485.55, 60454.18, 0.00, 0.00, 0.00, 1486242225593
175, -143069.22, -144344.75, -142868.30, -142923.42, -143016.94, -143154.72, -143461.81, 60465.87, 0.00, 0.00, 0.00, 1486242225597
176, -143059.31, -144333.17, -142869.84, -142923.55, -143009.09, -143116.67, -143453.09, 60463.12, 0.00, 0.00, 0.00, 1486242225602
177, -143065.00, -144321.20, -142873.98, -142928.42, -143014.30, -143139.94, -143444.59, 60460.02, 0.00, 0.00, 0.00, 1486242225607
178, -143078.58, -144294.28, -142867.52, -142921.67, -143021.91, -143190.70, -143421.55, 60468.93, 0.00, 0.00, 0.00, 1486242225611
179, -143066.14, -144264.09, -142868.70, -142918.97, -143017.05, -143155.09, -143398.94, 60482.68, 0.02, -0.01, 1.04, 1486242225615
180, -143065.05, -144243.11, -142869.94, -142915.23, -143008.06, -143146.20, -143488.03, 60497.88, 0.00, 0.00, 0.00, 1486242225619
181, -143063.77, -144227.95, -142867.89, -142913.89, -143008.83, -143139.45, -143573.66, 60503.53, 0.00, 0.00, 0.00, 1486242225621
182, -143073.16, -144201.61, -142869.19, -142923.75, -143017.81, -143182.30, -143555.80, 60513.52, 0.00, 0.00, 0.00, 1486242225626
183, -143064.92, -144169.86, -142861.42, -142912.94, -143009.08, -143160.50, -143527.91, 60530.51, 0.00, 0.00, 0.00, 1486242225634
184, -143055.08, -144153.30, -142856.45, -142909.00, -143007.86, -143129.81, -143513.94, 60531.96, 0.00, 0.00, 0.00, 1486242225634
185, -143055.77, -144144.73, -142859.16, -142913.89, -142999.77, -143110.91, -143508.78, 60525.04, 0.00, 0.00, 0.00, 1486242225638
186, -143072.27, -144122.30, -142862.44, -142924.38, -143011.50, -143173.47, -143490.14, 60531.18, 0.00, 0.00, 0.00, 1486242225643
187, -143064.77, -144089.55, -142862.98, -142921.70, -143004.42, -143162.81, -143461.67, 60547.61, 0.00, 0.00, 0.00, 1486242225646
188, -143052.09, -144073.84, -142861.55, -142911.06, -142995.08, -143112.09, -143450.00, 60549.15, 0.00, 0.00, 0.00, 1486242225649
189, -143043.97, -144067.50, -142859.81, -142903.42, -142996.38, -143105.16, -143446.41, 60540.01, 0.02, -0.02, 1.05, 1486242225653
190, -143058.36, -144050.64, -142856.98, -142906.75, -143004.48, -143149.13, -143433.53, 60539.88, 0.00, 0.00, 0.00, 1486242225657
191, -143076.94, -144017.22, -142858.36, -142914.30, -143015.70, -143195.06, -143403.13, 60557.98, 0.00, 0.00, 0.00, 1486242225662
192, -143058.95, -143989.17, -142852.81, -142905.38, -143009.42, -143163.86, -143401.45, 60574.10, 0.00, 0.00, 0.00, 1486242225667
193, -143051.34, -143967.94, -142850.98, -142904.08, -142999.27, -143129.53, -143528.45, 60589.07, 0.00, 0.00, 0.00, 1486242225671
194, -143056.77, -143948.72, -142851.69, -142907.97, -143001.77, -143145.95, -143568.98, 60595.27, 0.00, 0.00, 0.00, 1486242225675
195, -143060.56, -143918.09, -142850.02, -142910.52, -143002.41, -143163.14, -143542.39, 60610.57, 0.00, 0.00, 0.00, 1486242225678
196, -143050.73, -143895.55, -142853.61, -142910.48, -143000.89, -143138.64, -143523.14, 60619.02, 0.00, 0.00, 0.00, 1486242225682
197, -143039.31, -143886.13, -142856.30, -142906.56, -142992.91, -143096.38, -143516.50, 60614.33, 0.00, 0.00, 0.00, 1486242225686
198, -143050.44, -143874.23, -142853.09, -142901.94, -142996.94, -143131.89, -143507.30, 60609.68, 0.00, 0.00, 0.00, 1486242225691
199, -143062.22, -143845.27, -142850.94, -142909.50, -143005.14, -143170.78, -143482.39, 60621.24, 0.02, -0.02, 1.05, 1486242225694
200, -143052.19, -143816.59, -142847.95, -142903.84, -143002.45, -143163.64, -143456.67, 60633.13, 0.00, 0.00, 0.00, 1486242225698
201, -143036.55, -143804.81, -142846.95, -142900.64, -142988.69, -143095.66, -143448.80, 60628.77, 0.00, 0.00, 0.00, 1486242225702
202, -143041.53, -143795.67, -142849.08, -142899.75, -142989.63, -143115.52, -143442.45, 60623.70, 0.00, 0.00, 0.00, 1486242225706
203, -143063.72, -143769.41, -142852.08, -142909.19, -143003.44, -143171.66, -143419.61, 60633.46, 0.00, 0.00, 0.00, 1486242225709
204, -143049.48, -143740.75, -142850.39, -142905.16, -143001.50, -143164.17, -143394.42, 60645.27, 0.00, 0.00, 0.00, 1486242225714
205, -143030.80, -143729.02, -142845.59, -142895.86, -142985.72, -143090.50, -143386.70, 60641.15, 0.00, 0.00, 0.00, 1486242225718
206, -143040.67, -143722.22, -142846.38, -142901.61, -142984.66, -143091.55, -143381.77, 60631.65, 0.00, 0.00, 0.00, 1486242225722
207, -143071.64, -143691.20, -142851.33, -142911.75, -143009.58, -143211.22, -143396.42, 60650.36, 0.00, 0.00, 0.00, 1486242225726
208, -143057.59, -143644.22, -142848.58, -142907.13, -143004.42, -143185.53, -143523.61, 60690.77, 0.00, 0.00, 0.00, 1486242225730
209, -143032.09, -143625.36, -142845.69, -142895.08, -142986.27, -143100.00, -143557.94, 60696.56, 0.02, -0.01, 1.04, 1486242225734
210, -143039.25, -143617.80, -142846.80, -142898.03, -142988.78, -143116.47, -143552.08, 60691.55, 0.00, 0.00, 0.00, 1486242225738
211, -143047.27, -143597.09, -142846.42, -142895.53, -142989.72, -143135.11, -143533.88, 60697.88, 0.00, 0.00, 0.00, 1486242225742
212, -143051.30, -143568.25, -142846.89, -142898.77, -142987.81, -143143.52, -143509.03, 60709.97, 0.00, 0.00, 0.00, 1486242225746
213, -143037.02, -143549.72, -142844.45, -142889.80, -142984.59, -143110.59, -143493.83, 60711.54, 0.00, 0.00, 0.00, 1486242225750
214, -143030.80, -143544.03, -142839.73, -142888.03, -142978.00, -143081.67, -143489.97, 60703.40, 0.00, 0.00, 0.00, 1486242225753
215, -143045.30, -143527.61, -142840.47, -142900.27, -142982.31, -143127.02, -143477.16, 60706.44, 0.00, 0.00, 0.00, 1486242225758
216, -143052.88, -143493.28, -142840.25, -142902.20, -142996.44, -143183.73, -143447.55, 60725.60, 0.00, 0.00, 0.00, 1486242225761
217, -143037.19, -143469.83, -142835.27, -142891.80, -142981.52, -143114.97, -143428.28, 60732.06, 0.00, 0.00, 0.00, 1486242225766
218, -143025.25, -143463.48, -142841.19, -142890.27, -142969.89, -143066.63, -143423.45, 60723.65, 0.00, 0.00, 0.00, 1486242225770
219, -143032.19, -143451.91, -142837.86, -142887.02, -142975.00, -143099.38, -143415.06, 60720.57, 0.02, -0.01, 1.04, 1486242225775
220, -143049.55, -143423.19, -142836.06, -142894.58, -142991.88, -143168.81, -143390.89, 60732.73, 0.00, 0.00, 0.00, 1486242225779
221, -143037.66, -143396.36, -142836.66, -142892.33, -142980.63, -143129.19, -143374.34, 60745.40, 0.00, 0.00, 0.00, 1486242225782
222, -143039.05, -143374.48, -142837.28, -142884.17, -142979.92, -143116.38, -143481.86, 60760.27, 0.00, 0.00, 0.00, 1486242225786
223, -143036.63, -143355.97, -142834.89, -142885.33, -142987.39, -143132.66, -143552.67, 60766.99, 0.00, 0.00, 0.00, 1486242225789
224, -143044.30, -143325.13, -142832.72, -142890.86, -142990.88, -143161.63, -143527.61, 60780.80, 0.00, 0.00, 0.00, 1486242225793
225, -143033.88, -143297.75, -142829.31, -142885.73, -142981.91, -143130.08, -143503.89, 60791.04, 0.00, 0.00, 0.00, 1486242225798
226, -143022.58, -143286.13, -142832.06, -142887.59, -142974.61, -143097.52, -143494.31, 60787.82, 0.00, 0.00, 0.00, 1486242225802
227, -143021.19, -143278.39, -142831.53, -142887.33, -142968.55, -143078.03, -143488.45, 60779.55, 0.00, 0.00, 0.00, 1486242225807
228, -143041.33, -143253.80, -142832.83, -142889.56, -142978.31, -143142.28, -143468.42, 60784.92, 0.00, 0.00, 0.00, 1486242225810
229, -143038.83, -143224.45, -142830.45, -142885.02, -142981.02, -143133.30, -143443.36, 60797.44, 0.00, 0.00, 0.00, 1486242225814
230, -143019.69, -143212.09, -142826.70, -142877.58, -142968.66, -143072.34, -143434.42, 60795.60, 0.02, -0.02, 1.03, 1486242225818
231, -143021.72, -143204.06, -142828.63, -142883.31, -142975.81, -143099.97, -143429.63, 60789.61, 0.00, 0.00, 0.00, 1486242225821
232, -143036.66, -143178.63, -142831.02, -142885.38, -142983.95, -143151.83, -143407.31, 60799.98, 0.00, 0.00, 0.00, 1486242225825
233, -143024.61, -143148.03, -142824.42, -142878.67, -142981.98, -143134.13, -143380.11, 60815.05, 0.00, 0.00, 0.00, 1486242225831
234, -143010.50, -143132.70, -142824.09, -142876.19, -142967.75, -143072.42, -143368.08, 60815.32, 0.00, 0.00, 0.00, 1486242225835
235, -143004.33, -143125.05, -142826.91, -142880.03, -142966.38, -143076.86, -143362.72, 60807.58, 0.00, 0.00, 0.00, 1486242225837
236, -143035.77, -143042.98, -142829.08, -142889.25, -142982.19, -143167.36, -143362.09, 60817.71, 0.00, 0.00, 0.00, 1486242225841
237, -143070.84, -142609.91, -142833.47, -142901.98, -142994.63, -143226.11, -143470.88, 60870.28, 0.00, 0.00, 0.00, 1486242225845
238, -143039.97, -142573.88, -142823.64, -142881.22, -142971.08, -143137.81, -143515.61, 60905.35, 0.00, 0.00, 0.00, 1486242225849
239, -143029.70, -142779.97, -142819.06, -142872.88, -142974.25, -143144.30, -143488.22, 60923.10, 0.00, 0.00, 0.00, 1486242225853
240, -143052.23, -142971.20, -142821.41, -142886.50, -142989.00, -143216.55, -143446.58, 60952.20, 0.01, -0.02, 1.03, 1486242225858
241, -143051.20, -143145.97, -142819.63, -142885.94, -142980.66, -143201.16, -143392.66, 60994.58, 0.00, 0.00, 0.00, 1486242225863
242, -143030.39, -143333.00, -142810.52, -142870.63, -142972.92, -143159.67, -143348.73, 61027.64, 0.00, 0.00, 0.00, 1486242225865
243, -143028.97, -143550.14, -142808.08, -142870.88, -142965.23, -143160.53, -143393.36, 61060.92, 0.00, 0.00, 0.00, 1486242225870
244, -143023.58, -144072.81, -142806.25, -142863.25, -142959.83, -143141.08, -143491.75, 61093.55, 0.00, 0.00, 0.00, 1486242225873
245, -143014.86, -144384.19, -142802.42, -142859.88, -142957.58, -143122.50, -143474.20, 61113.82, 0.00, 0.00, 0.00, 1486242225877
246, -143004.63, -144365.94, -142798.30, -142857.28, -142950.39, -143102.48, -143452.64, 61123.37, 0.00, 0.00, 0.00, 1486242225882
247, -142990.97, -144355.25, -142796.19, -142849.53, -142938.28, -143044.92, -143445.64, 61117.63, 0.00, 0.00, 0.00, 1486242225885
248, -142992.28, -144341.77, -142800.48, -142853.50, -142938.84, -143073.67, -143435.66, 61114.36, 0.00, 0.00, 0.00, 1486242225890
249, -143013.36, -144311.22, -142798.72, -142859.14, -142952.75, -143123.69, -143409.50, 61126.66, 0.00, 0.00, 0.00, 1486242225894
250, -142997.31, -144281.83, -142796.84, -142854.06, -142946.91, -143089.27, -143384.20, 61138.25, 0.02, -0.02, 1.03, 1486242225897
251, -142985.56, -144271.30, -142793.58, -142842.13, -142938.66, -143045.66, -143377.25, 61133.88, 0.00, 0.00, 0.00, 1486242225902
252, -142993.30, -144262.59, -142794.27, -142845.59, -142940.45, -143051.70, -143372.84, 61126.32, 0.00, 0.00, 0.00, 1486242225906
253, -143007.44, -144235.80, -142798.14, -142857.03, -142947.42, -143123.89, -143349.44, 61135.44, 0.00, 0.00, 0.00, 1486242225910
254, -143004.31, -144202.31, -142795.91, -142847.33, -142947.45, -143099.23, -143336.22, 61157.41, 0.00, 0.00, 0.00, 1486242225914
255, -142996.05, -144175.14, -142793.25, -142845.66, -142945.77, -143080.69, -143454.55, 61178.36, 0.00, 0.00, 0.00, 1486242225919
0, -142989.38, -144160.03, -142790.69, -142841.20, -142936.19, -143063.66, -143507.34, 61180.81, 0.00, 0.00, 0.00, 1486242225922
1, -142995.09, -144136.25, -142793.20, -142851.95, -142940.20, -143093.94, -143486.69, 61189.39, 0.00, 0.00, 0.00, 1486242225925
2, -143001.50, -144104.86, -142792.69, -142850.98, -142939.83, -143099.06, -143459.45, 61204.42, 0.00, 0.00, 0.00, 1486242225930
3, -142985.09, -144086.81, -142789.84, -142841.41, -142934.80, -143073.80, -143445.02, 61207.41, 0.00, 0.00, 0.00, 1486242225934
4, -142977.27, -144080.75, -142789.48, -142842.78, -142927.53, -143032.00, -143442.00, 61198.98, 0.02, -0.02, 1.04, 1486242225938
5, -142993.69, -144063.17, -142787.50, -142841.64, -142932.05, -143067.56, -143427.31, 61200.62, 0.00, 0.00, 0.00, 1486242225942
6, -143000.06, -144031.02, -142785.89, -142845.56, -142941.77, -143119.27, -143398.64, 61215.61, 0.00, 0.00, 0.00, 1486242225947
7, -142980.80, -144011.19, -142785.84, -142840.73, -142927.69, -143053.97, -143382.59, 61218.54, 0.00, 0.00, 0.00, 1486242225950
8, -142973.95, -144002.63, -142786.66, -142835.22, -142926.17, -143034.48, -143376.52, 61210.56, 0.00, 0.00, 0.00, 1486242225953
9, -142983.34, -143987.14, -142783.25, -142835.83, -142933.86, -143071.20, -143363.13, 61210.27, 0.00, 0.00, 0.00, 1486242225958
10, -142997.27, -143954.38, -142781.80, -142841.95, -142943.30, -143118.84, -143334.80, 61227.10, 0.00, 0.00, 0.00, 1486242225961
11, -142982.34, -143930.05, -142779.97, -142836.14, -142929.45, -143072.22, -143319.38, 61236.38, 0.00, 0.00, 0.00, 1486242225966
12, -142984.28, -143909.75, -142786.97, -142842.80, -142930.77, -143070.11, -143417.91, 61249.12, 0.00, 0.00, 0.00, 1486242225970
13, -142988.70, -143889.66, -142786.38, -142843.28, -142930.28, -143080.08, -143490.75, 61259.04, 0.00, 0.00, 0.00, 1486242225974
14, -142991.23, -143858.03, -142784.59, -142843.38, -142935.09, -143095.11, -143466.00, 61274.82, 0.02, -0.02, 1.04, 1486242225977
15, -142987.70, -143830.92, -142783.98, -142836.84, -142923.70, -143069.73, -143443.14, 61285.78, 0.00, 0.00, 0.00, 1486242225981
16, -142971.34, -143819.41, -142782.33, -142825.34, -142914.91, -143019.33, -143434.92, 61281.20, 0.00, 0.00, 0.00, 1486242225985
17, -142974.66, -143809.16, -142778.45, -142832.53, -142924.20, -143051.31, -143427.88, 61276.88, 0.00, 0.00, 0.00, 1486242225990
18, -142990.88, -143780.30, -142782.36, -142843.75, -142937.23, -143102.28, -143402.75, 61290.67, 0.00, 0.00, 0.00, 1486242225994
19, -142978.05, -143751.70, -142782.17, -142839.73, -142926.08, -143073.63, -143377.27, 61303.81, 0.00, 0.00, 0.00, 1486242225997
20, -142964.39, -143741.47, -142777.42, -142826.66, -142914.72, -143020.69, -143370.09, 61297.45, 0.00, 0.00, 0.00, 1486242226002
21, -142971.61, -143733.33, -142777.94, -142827.78, -142919.67, -143033.03, -143364.52, 61290.52, 0.00, 0.00, 0.00, 1486242226006
22, -142985.27, -143708.03, -142776.53, -142836.42, -142930.06, -143097.89, -143342.56, 61301.38, 0.00, 0.00, 0.00, 1486242226009
23, -142979.95, -143675.98, -142775.73, -142835.78, -142925.52, -143082.08, -143313.41, 61317.45, 0.00, 0.00, 0.00, 1486242226014
24, -142973.94, -143652.75, -142772.02, -142830.72, -142920.42, -143069.89, -143347.80, 61329.52, 0.02, -0.02, 1.03, 1486242226017
25, -142968.81, -143632.94, -142772.28, -142825.78, -142913.72, -143053.42, -143476.38, 61341.10, 0.00, 0.00, 0.00, 1486242226022
26, -142978.20, -143607.73, -142772.05, -142827.11, -142925.13, -143081.89, -143479.13, 61351.76, 0.00, 0.00, 0.00, 1486242226026
27, -142968.33, -143577.81, -142767.77, -142823.86, -142917.00, -143072.66, -143451.88, 61367.45, 0.00, 0.00, 0.00, 1486242226031
28, -142959.58, -143562.05, -142771.58, -142825.00, -142905.47, -143032.45, -143440.13, 61366.46, 0.00, 0.00, 0.00, 1486242226034
29, -142961.22, -143554.14, -142768.61, -142819.63, -142913.63, -143015.84, -143435.59, 61358.89, 0.00, 0.00, 0.00, 1486242226036
30, -142968.25, -143535.44, -142767.98, -142822.56, -142914.70, -143056.30, -143419.53, 61361.64, 0.00, 0.00, 0.00, 1486242226041
31, -142974.16, -143503.61, -142767.77, -142823.70, -142915.95, -143084.91, -143391.48, 61376.66, 0.00, 0.00, 0.00, 1486242226046
32, -142959.05, -143482.48, -142762.95, -142808.94, -142904.33, -143028.52, -143373.14, 61382.00, 0.00, 0.00, 0.00, 1486242226050
33, -142954.25, -143475.42, -142765.55, -142818.70, -142902.83, -143009.52, -143368.36, 61372.28, 0.00, 0.00, 0.00, 1486242226054
34, -142970.25, -143457.83, -142769.03, -142828.67, -142919.98, -143076.03, -143353.22, 61373.51, 0.02, -0.02, 1.04, 1486242226058
35, -142984.38, -143423.98, -142769.50, -142833.23, -142925.08, -143105.27, -143323.83, 61391.93, 0.00, 0.00, 0.00, 1486242226062
36, -142968.55, -143401.66, -142764.52, -142820.63, -142905.45, -143035.38, -143305.48, 61399.43, 0.00, 0.00, 0.00, 1486242226064
37, -142954.69, -143396.52, -142762.11, -142816.27, -142900.31, -143003.42, -143301.91, 61391.28, 0.00, 0.00, 0.00, 1486242226070
38, -142976.11, -143379.84, -142766.59, -142827.67, -142919.03, -143083.86, -143310.16, 61396.39, 0.00, 0.00, 0.00, 1486242226074
39, -142984.64, -143336.45, -142762.31, -142827.67, -142925.31, -143124.81, -143424.41, 61433.41, 0.00, 0.00, 0.00, 1486242226078
40, -142955.53, -143305.83, -142756.97, -142813.03, -142905.89, -143040.63, -143463.75, 61451.92, 0.00, 0.00, 0.00, 1486242226081
41, -142946.16, -143297.91, -142757.41, -142811.48, -142891.70, -142998.16, -143458.45, 61446.55, 0.00, 0.00, 0.00, 1486242226085
42, -142949.06, -143288.00, -142759.72, -142815.91, -142893.63, -143011.80, -143450.55, 61440.38, 0.00, 0.00, 0.00, 1486242226089
43, -142970.38, -143260.13, -142758.27, -142813.19, -142913.47, -143102.23, -143426.77, 61451.11, 0.00, 0.00, 0.00, 1486242226093
44, -142951.06, -143234.31, -142753.86, -142806.00, -142897.77, -143027.48, -143405.69, 61461.15, 0.02, -0.02, 1.04, 1486242226096
45, -142941.50, -143226.38, -142754.86, -142805.89, -142889.44, -142992.80, -143400.31, 61454.11, 0.00, 0.00, 0.00, 1486242226102
46, -142950.84, -143218.00, -142756.97, -142813.36, -142895.38, -143014.02, -143394.50, 61446.80, 0.00, 0.00, 0.00, 1486242226106
47, -142968.34, -143192.84, -142756.47, -142823.11, -142913.56, -143086.78, -143372.11, 61456.19, 0.00, 0.00, 0.00, 1486242226110
48, -142955.19, -143160.91, -142754.53, -142815.81, -142902.83, -143053.91, -143344.09, 61472.05, 0.00, 0.00, 0.00, 1486242226113
49, -142942.03, -143148.34, -142750.34, -142797.48, -142890.77, -143013.92, -143335.81, 61470.38, 0.00, 0.00, 0.00, 1486242226118
50, -142945.88, -143141.77, -142752.25, -142797.83, -142890.92, -143005.94, -143332.08, 61462.85, 0.00, 0.00, 0.00, 1486242226120
51, -142953.58, -143121.09, -142750.63, -142806.70, -142898.44, -143048.28, -143315.33, 61466.02, 0.00, 0.00, 0.00, 1486242226126
52, -142955.97, -143091.95, -142748.83, -142807.55, -142901.45, -143065.22, -143289.81, 61478.88, 0.00, 0.00, 0.00, 1486242226131
53, -142940.56, -143069.39, -142748.31, -142804.83, -142890.86, -143018.28, -143341.38, 61492.87, 0.00, 0.00, 0.00, 1486242226134
54, -142938.11, -143055.09, -142749.19, -142806.41, -142888.80, -143010.03, -143460.06, 61498.50, 0.02, -0.02, 1.03, 1486242226138
55, -142947.42, -143028.78, -142752.52, -142810.70, -142901.47, -143062.52, -143456.83, 61504.85, 0.00, 0.00, 0.00, 1486242226141
56, -142966.27, -142740.77, -142752.83, -142808.36, -142908.75, -143095.14, -143423.19, 61526.37, 0.00, 0.00, 0.00, 1486242226144
57, -142964.03, -142469.59, -142751.11, -142814.36, -142903.55, -143065.16, -143389.03, 61549.59, 0.00, 0.00, 0.00, 1486242226149
58, -142960.66, -142644.97, -142747.22, -142806.45, -142903.50, -143077.98, -143361.61, 61567.05, 0.00, 0.00, 0.00, 1486242226153
59, -142974.31, -142841.55, -142749.48, -142813.14, -142912.72, -143123.31, -143324.28, 61593.83, 0.00, 0.00, 0.00, 1486242226158
60, -142987.95, -143019.02, -142747.20, -142823.70, -142921.09, -143153.80, -143283.81, 61637.39, 0.00, 0.00, 0.00, 1486242226162
61, -142969.75, -143191.34, -142739.48, -142805.20, -142906.19, -143122.78, -143377.16, 61692.11, 0.00, 0.00, 0.00, 1486242226166
62, -142943.00, -143393.39, -142733.09, -142792.42, -142886.73, -143043.06, -143440.89, 61718.28, 0.00, 0.00, 0.00, 1486242226169
63, -142953.19, -143796.72, -142733.41, -142795.09, -142891.08, -143078.70, -143411.67, 61739.85, 0.00, 0.00, 0.00, 1486242226173
64, -142949.50, -144285.63, -142728.80, -142790.58, -142891.77, -143070.58, -143375.23, 61764.64, 0.02, -0.02, 1.04, 1486242226176
65, -142927.70, -144313.78, -142726.72, -142779.88, -142875.94, -143011.47, -143352.86, 61776.00, 0.00, 0.00, 0.00, 1486242226181
66, -142913.83, -144305.06, -142730.91, -142772.08, -142866.84, -142961.39, -143346.94, 61770.59, 0.00, 0.00, 0.00, 1486242226186
67, -142920.56, -144296.33, -142726.25, -142774.38, -142870.53, -142989.83, -143341.44, 61764.64, 0.00, 0.00, 0.00, 1486242226191
68, -142934.08, -144271.08, -142725.86, -142783.36, -142874.00, -143038.86, -143321.39, 61771.37, 0.00, 0.00, 0.00, 1486242226193
69, -142931.05, -144243.45, -142724.78, -142778.89, -142872.70, -143021.50, -143298.55, 61780.31, 0.00, 0.00, 0.00, 1486242226198
70, -142918.19, -144232.36, -142724.73, -142775.05, -142868.70, -142999.53, -143290.86, 61775.73, 0.00, 0.00, 0.00, 1486242226200
71, -142918.41, -144223.48, -142728.59, -142776.53, -142870.69, -142994.30, -143285.72, 61769.09, 0.00, 0.00, 0.00, 1486242226205
72, -142940.56, -144195.64, -142727.81, -142786.52, -142882.67, -143044.20, -143269.47, 61781.63, 0.00, 0.00, 0.00, 1486242226209
73, -142939.88, -144152.34, -142724.47, -142781.95, -142882.84, -143063.16, -143358.97, 61817.46, 0.00, 0.00, 0.00, 1486242226214
74, -142909.81, -144132.97, -142720.69, -142768.56, -142865.06, -142985.77, -143435.94, 61824.41, 0.02, -0.02, 1.04, 1486242226218
75, -142913.03, -144126.56, -142723.58, -142774.95, -142859.09, -142956.48, -143434.92, 61814.20, 0.00, 0.00, 0.00, 1486242226222
76, -142927.05, -144107.09, -142725.42, -142775.97, -142870.42, -143025.03, -143419.41, 61816.72, 0.00, 0.00, 0.00, 1486242226225
77, -142930.61, -144077.48, -142723.33, -142774.72, -142867.86, -143031.33, -143394.19, 61829.44, 0.00, 0.00, 0.00, 1486242226229
78, -142911.06, -144062.58, -142717.25, -142764.16, -142854.67, -142971.98, -143382.72, 61829.55, 0.00, 0.00, 0.00, 1486242226234
79, -142907.73, -144057.14, -142719.03, -142772.44, -142853.48, -142959.31, -143379.91, 61821.10, 0.00, 0.00, 0.00, 1486242226237
80, -142925.23, -144037.00, -142723.23, -142776.80, -142871.89, -143027.31, -143363.14, 61826.71, 0.00, 0.00, 0.00, 1486242226241
81, -142930.84, -144005.27, -142721.83, -142776.53, -142880.03, -143056.88, -143334.78, 61842.85, 0.00, 0.00, 0.00, 1486242226246
82, -142912.72, -143985.81, -142715.64, -142764.28, -142863.77, -142982.25, -143319.22, 61846.92, 0.00, 0.00, 0.00, 1486242226250
83, -142907.38, -143979.50, -142723.42, -142770.41, -142861.92, -142963.73, -143316.31, 61836.30, 0.00, 0.00, 0.00, 1486242226254
84, -142915.42, -143966.80, -142725.06, -142769.28, -142865.84, -142988.33, -143307.28, 61831.09, 0.02, -0.02, 1.04, 1486242226258
85, -142924.69, -143939.02, -142719.30, -142775.11, -142868.13, -143025.67, -143283.73, 61840.77, 0.00, 0.00, 0.00, 1486242226261
86, -142923.11, -143917.20, -142718.03, -142773.48, -142861.55, -142993.38, -143266.09, 61846.40, 0.00, 0.00, 0.00, 1486242226265
87, -142909.27, -143909.63, -142717.98, -142769.22, -142855.14, -142971.39, -143260.86, 61838.04, 0.00, 0.00, 0.00, 1486242226269
88, -142919.80, -143895.66, -142721.16, -142778.31, -142865.17, -143006.81, -143254.92, 61838.89, 0.00, 0.00, 0.00, 1486242226274
89, -142937.59, -143853.94, -142718.59, -142777.39, -142881.31, -143086.56, -143345.05, 61875.17, 0.00, 0.00, 0.00, 1486242226278
90, -142908.25, -143823.08, -142710.09, -142762.28, -142858.17, -142993.36, -143422.63, 61895.02, 0.00, 0.00, 0.00, 1486242226281
91, -142895.28, -143815.45, -142708.08, -142758.11, -142854.47, -142959.41, -143422.67, 61888.20, 0.00, 0.00, 0.00, 1486242226285
92, -142910.66, -143806.92, -142715.59, -142766.17, -142858.38, -142985.16, -143416.47, 61880.82, 0.00, 0.00, 0.00, 1486242226289
93, -142916.20, -143781.23, -142715.08, -142766.48, -142861.70, -143018.73, -143394.19, 61888.11, 0.00, 0.00, 0.00, 1486242226293
94, -142912.31, -143754.33, -142709.64, -142762.31, -142856.41, -142999.55, -143371.81, 61896.52, 0.02, -0.02, 1.04, 1486242226297
95, -142898.03, -143743.27, -142708.38, -142757.86, -142848.42, -142954.22, -143364.58, 61891.75, 0.00, 0.00, 0.00, 1486242226302
96, -142906.31, -143733.80, -142713.41, -142768.56, -142854.11, -142975.59, -143358.08, 61886.08, 0.00, 0.00, 0.00, 1486242226306
97, -142921.56, -143709.22, -142715.86, -142769.44, -142865.11, -143032.31, -143336.50, 61895.91, 0.00, 0.00, 0.00, 1486242226309
98, -142912.91, -143681.33, -142705.28, -142759.11, -142856.34, -142996.36, -143312.09, 61909.28, 0.00, 0.00, 0.00, 1486242226313
99, -142900.11, -143669.16, -142710.81, -142760.78, -142854.63, -142972.64, -143302.42, 61907.38, 0.00, 0.00, 0.00, 1486242226317
100, -142894.52, -143663.55, -142712.44, -142754.59, -142857.42, -142964.02, -143299.64, 61897.70, 0.00, 0.00, 0.00, 1486242226321
101, -142910.36, -143645.31, -142707.81, -142761.55, -142856.08, -142992.47, -143285.67, 61900.43, 0.00, 0.00, 0.00, 1486242226325
102, -142919.94, -143614.20, -142711.28, -142763.42, -142863.61, -143040.52, -143258.88, 61914.64, 0.00, 0.00, 0.00, 1486242226330
103, -142902.08, -143595.84, -142710.08, -142761.66, -142852.55, -142972.23, -143244.03, 61917.17, 0.00, 0.00, 0.00, 1486242226334
104, -142898.70, -143588.97, -142708.11, -142762.36, -142844.09, -142939.48, -143239.30, 61909.52, 0.02, -0.02, 1.05, 1486242226337
105, -142919.48, -143568.48, -142709.16, -142767.78, -142861.95, -143027.56, -143242.89, 61917.97, 0.00, 0.00, 0.00, 1486242226342
106, -142933.52, -143522.98, -142707.64, -142768.56, -142870.84, -143078.30, -143358.58, 61956.78, 0.00, 0.00, 0.00, 1486242226345
107, -142897.48, -143498.63, -142700.94, -142749.77, -142853.34, -142969.83, -143409.34, 61968.78, 0.00, 0.00, 0.00, 1486242226349
108, -142891.14, -143494.08, -142703.25, -142755.80, -142845.75, -142951.81, -143408.09, 61958.00, 0.00, 0.00, 0.00, 1486242226353
109, -142903.89, -143481.52, -142705.06, -142763.02, -142847.22, -142970.02, -143397.97, 61955.75, 0.00, 0.00, 0.00, 1486242226357
110, -142908.88, -143453.41, -142704.28, -142766.00, -142855.89, -143011.73, -143373.41, 61967.10, 0.00, 0.00, 0.00, 1486242226362
111, -142905.72, -143430.69, -142700.03, -142756.58, -142851.16, -143000.47, -143352.81, 61974.75, 0.00, 0.00, 0.00, 1486242226365
112, -142889.42, -143421.78, -142701.02, -142750.58, -142841.50, -142951.06, -143346.89, 61968.91, 0.00, 0.00, 0.00, 1486242226369
113, -142902.44, -143407.92, -142706.41, -142762.13, -142854.75, -142990.92, -143338.42, 61966.99, 0.00, 0.00, 0.00, 1486242226373
114, -142908.22, -143378.86, -142706.05, -142757.50, -142855.50, -143001.09, -143313.08, 61978.84, 0.02, -0.02, 1.04, 1486242226378
115, -142902.66, -143353.63, -142700.59, -142750.17, -142851.06, -142996.67, -143291.34, 61985.52, 0.00, 0.00, 0.00, 1486242226381
116, -142886.56, -143347.14, -142698.50, -142745.13, -142841.03, -142936.36, -143286.77, 61976.51, 0.00, 0.00, 0.00, 1486242226387
117, -142898.91, -143337.86, -142702.11, -142750.78, -142847.47, -142974.00, -143280.91, 61968.73, 0.00, 0.00, 0.00, 1486242226389
118, -142906.52, -143312.58, -142700.33, -142752.77, -142846.33, -142987.61, -143260.48, 61975.55, 0.00, 0.00, 0.00, 1486242226392
119, -142904.44, -143284.53, -142700.33, -142755.73, -142850.64, -143000.00, -143236.98, 61987.42, 0.00, 0.00, 0.00, 1486242226397
120, -142884.44, -143272.11, -142696.17, -142752.30, -142840.61, -142948.88, -143226.38, 61988.05, 0.00, 0.00, 0.00, 1486242226401
121, -142890.61, -143263.75, -142694.69, -142750.58, -142841.92, -142967.88, -143224.09, 61984.13, 0.00, 0.00, 0.00, 1486242226406
122, -142925.81, -143225.81, -142700.33, -142768.97, -142864.88, -143077.17, -143310.59, 62014.93, 0.00, 0.00, 0.00, 1486242226410
123, -142902.00, -143186.30, -142693.55, -142753.03, -142849.22, -143001.56, -143395.98, 62045.24, 0.00, 0.00, 0.00, 1486242226413
124, -142885.00, -143173.95, -142692.80, -142747.38, -142832.56, -142948.39, -143392.77, 62041.87, 0.02, -0.02, 1.04, 1486242226419
125, -142886.41, -143166.98, -142697.56, -142746.11, -142832.56, -142947.78, -143388.33, 62035.23, 0.00, 0.00, 0.00, 1486242226422
126, -142894.27, -143148.41, -142696.66, -142747.89, -142839.05, -142978.31, -143372.44, 62038.09, 0.00, 0.00, 0.00, 1486242226425
127, -142896.63, -143117.80, -142695.56, -142745.19, -142844.66, -143002.09, -143345.52, 62052.71, 0.00, 0.00, 0.00, 1486242226429
128, -142885.47, -143099.27, -142689.08, -142739.70, -142831.36, -142963.16, -143329.78, 62058.03, 0.00, 0.00, 0.00, 1486242226434
129, -142883.28, -143091.44, -142690.52, -142740.31, -142829.67, -142945.41, -143324.30, 62052.35, 0.00, 0.00, 0.00, 1486242226438
130, -142893.38, -143072.64, -142695.47, -142751.02, -142839.69, -142997.03, -143309.09, 62057.29, 0.00, 0.00, 0.00, 1486242226442
131, -142898.75, -143042.00, -142694.98, -142745.19, -142843.09, -143001.41, -143282.48, 62072.49, 0.00, 0.00, 0.00, 1486242226445
132, -142880.81, -143023.59, -142692.91, -142738.92, -142837.28, -142962.98, -143266.98, 62076.22, 0.00, 0.00, 0.00, 1486242226449
133, -142874.98, -143016.16, -142693.11, -142739.89, -142833.66, -142934.69, -143263.25, 62067.91, 0.00, 0.00, 0.00, 1486242226453
134, -142881.67, -143003.48, -142688.70, -142744.36, -142834.80, -142968.33, -143253.89, 62063.53, 0.00, 0.00, 0.00, 1486242226457
135, -142887.25, -142973.23, -142688.13, -142750.66, -142842.19, -143005.98, -143226.89, 62077.48, 0.02, -0.02, 1.04, 1486242226462
136, -142889.48, -142822.20, -142685.59, -142748.72, -142838.95, -143010.25, -143256.70, 62101.05, 0.00, 0.00, 0.00, 1486242226465
137, -142909.53, -142426.34, -142686.72, -142747.53, -142843.98, -143013.97, -143376.09, 62129.49, 0.00, 0.00, 0.00, 1486242226469
138, -142912.11, -142502.16, -142688.81, -142752.78, -142850.31, -143052.19, -143365.97, 62156.40, 0.00, 0.00, 0.00, 1486242226474
139, -142917.05, -142683.86, -142688.44, -142756.25, -142849.95, -143064.55, -143315.41, 62195.87, 0.00, 0.00, 0.00, 1486242226476
140, -142903.64, -142868.70, -142684.02, -142746.13, -142842.28, -143036.98, -143269.36, 62229.02, 0.00, 0.00, 0.00, 1486242226480
141, -142890.42, -143072.91, -142677.58, -142733.66, -142827.02, -142984.39, -143238.44, 62246.66, 0.00, 0.00, 0.00, 1486242226485
142, -142900.16, -143274.52, -142679.31, -142740.84, -142835.44, -143032.77, -143207.89, 62269.05, 0.00, 0.00, 0.00, 1486242226490
143, -142919.33, -143480.45, -142675.78, -142751.33, -142848.52, -143104.58, -143266.61, 62326.25, 0.00, 0.00, 0.00, 1486242226493
144, -142886.86, -144005.06, -142664.78, -142724.72, -142816.17, -142998.28, -143351.61, 62372.90, 0.00, 0.00, 0.00, 1486242226497
145, -142857.13, -144281.52, -142663.36, -142715.23, -142799.19, -142916.69, -143350.14, 62372.83, 0.01, -0.02, 1.04, 1486242226502
146, -142859.09, -144274.97, -142666.52, -142714.75, -142808.63, -142936.34, -143343.28, 62366.91, 0.00, 0.00, 0.00, 1486242226504
147, -142870.77, -144250.38, -142663.88, -142718.55, -142814.05, -142977.67, -143323.72, 62373.95, 0.00, 0.00, 0.00, 1486242226508
148, -142864.98, -144220.89, -142662.84, -142716.59, -142803.75, -142949.73, -143299.44, 62386.09, 0.00, 0.00, 0.00, 1486242226513
