%OpenBCI Raw EEG Data
%Sample Rate = 250.0 Hz
%First Column = SampleIndex
%Other Columns = EEG data in microvolts followed by Accel Data (in G) interleaved with Aux Data
0, 65908.52, -60502.75, 18753.72, -59711.32, 14425.12, -59723.81, 7026.90, 163415.34, 0.01, -0.02, 1.04, 1484601166636
1, 65885.30, -60182.50, 18726.98, -59706.56, 14396.18, -59617.51, 6997.95, 163411.45, 0.00, 0.00, 0.00, 1484601166640
2, 65868.48, -59552.22, 18706.76, -59696.95, 14383.55, -59398.33, 6982.93, 163407.78, 0.00, 0.00, 0.00, 1484601166645
3, 65887.27, -59397.10, 18729.62, -59701.13, 14406.44, -59497.21, 7008.08, 163401.73, 0.00, 0.00, 0.00, 1484601166649
4, 65899.29, -59907.30, 18741.24, -59714.11, 14422.69, -59732.11, 7026.11, 163394.59, 0.00, 0.00, 0.00, 1484601166653
5, 65880.67, -60146.84, 18719.29, -59710.71, 14401.36, -59654.68, 7004.39, 163389.61, 0.00, 0.00, 0.00, 1484601166655
6, 65859.93, -60248.99, 18698.73, -59697.75, 14381.47, -59378.84, 6987.02, 163385.92, 0.00, 0.00, 0.00, 1484601166660
7, 65879.38, -60861.23, 18724.50, -59697.98, 14402.44, -59415.70, 7005.62, 163379.33, 0.01, -0.02, 1.04, 1484601166664
8, 65904.52, -61150.82, 18745.24, -59709.55, 14424.14, -59689.53, 7026.52, 163371.67, 0.00, 0.00, 0.00, 1484601166667
9, 65882.75, -60967.60, 18720.61, -59714.96, 14403.64, -59720.08, 7006.42, 163367.47, 0.00, 0.00, 0.00, 1484601166672
10, 65855.97, -60510.21, 18694.04, -59703.61, 14377.00, -59474.55, 6982.28, 163365.23, 0.00, 0.00, 0.00, 1484601166676
11, 65874.41, -60289.13, 18715.85, -59696.48, 14393.88, -59467.13, 6992.72, 163362.30, 0.00, 0.00, 0.00, 1484601166680
12, 65898.08, -60350.09, 18743.44, -59709.00, 14419.94, -59712.66, 7016.48, 163355.30, 0.00, 0.00, 0.00, 1484601166684
13, 65889.21, -60233.37, 18736.10, -59707.12, 14411.80, -59763.60, 7008.50, 163351.11, 0.00, 0.00, 0.00, 1484601166688
14, 65861.63, -59730.25, 18701.75, -59695.11, 14381.65, -59560.85, 6985.10, 163349.63, 0.00, 0.00, 0.00, 1484601166691
15, 65874.45, -59172.08, 18710.29, -59687.40, 14394.17, -59473.25, 6993.91, 163343.38, 0.00, 0.00, 0.00, 1484601166695
16, 65904.81, -59478.01, 18740.86, -59698.24, 14422.64, -59649.18, 7021.91, 163336.23, 0.00, 0.00, 0.00, 1484601166701
17, 65894.30, -59920.06, 18741.85, -59705.40, 14416.16, -59710.67, 7016.35, 163332.44, 0.01, -0.02, 1.04, 1484601166705
18, 65863.59, -60010.01, 18708.59, -59695.81, 14392.60, -59518.16, 6990.42, 163328.22, 0.00, 0.00, 0.00, 1484601166707
19, 65862.07, -60383.91, 18709.88, -59684.52, 14392.91, -59356.96, 6994.29, 163324.09, 0.00, 0.00, 0.00, 1484601166712
20, 65887.04, -60909.08, 18734.09, -59697.55, 14408.85, -59533.40, 7018.43, 163315.88, 0.00, 0.00, 0.00, 1484601166716
21, 65887.93, -60935.66, 18731.97, -59709.09, 14409.81, -59614.71, 7020.84, 163310.31, 0.00, 0.00, 0.00, 1484601166720
22, 65854.25, -60570.36, 18700.83, -59700.75, 14381.94, -59522.22, 6988.03, 163307.78, 0.00, 0.00, 0.00, 1484601166724
23, 65853.27, -60173.78, 18695.29, -59690.04, 14377.29, -59349.24, 6982.48, 163302.47, 0.00, 0.00, 0.00, 1484601166728
24, 65882.46, -60131.09, 18722.07, -59696.46, 14404.31, -59476.80, 7006.91, 163296.56, 0.00, 0.00, 0.00, 1484601166731
25, 65889.59, -60170.47, 18733.20, -59709.75, 14414.26, -59511.65, 7013.62, 163290.69, 0.00, 0.00, 0.00, 1484601166735
26, 65859.84, -59865.95, 18704.36, -59709.80, 14384.78, -59488.70, 6988.41, 163288.25, 0.00, 0.00, 0.00, 1484601166740
27, 65843.37, -59260.35, 18687.15, -59697.75, 14368.93, -59300.52, 6971.93, 163284.98, 0.01, -0.02, 1.04, 1484601166744
28, 65868.45, -59037.97, 18716.97, -59700.48, 14393.81, -59381.79, 6996.05, 163278.23, 0.00, 0.00, 0.00, 1484601166748
29, 65889.56, -59532.77, 18737.29, -59709.91, 14413.25, -59504.68, 7015.77, 163273.14, 0.00, 0.00, 0.00, 1484601166751
30, 65865.31, -59789.95, 18716.34, -59708.26, 14392.76, -59455.77, 6995.63, 163269.41, 0.00, 0.00, 0.00, 1484601166756
31, 65851.74, -59891.09, 18700.61, -59692.14, 14374.65, -59205.86, 6980.65, 163266.59, 0.00, 0.00, 0.00, 1484601166760
32, 65867.98, -60494.37, 18716.97, -59687.92, 14397.34, -59230.82, 7002.38, 163262.33, 0.00, 0.00, 0.00, 1484601166762
33, 65889.34, -60785.84, 18735.59, -59698.36, 14423.69, -59425.73, 7024.37, 163255.22, 0.00, 0.00, 0.00, 1484601166768
34, 65871.04, -60614.11, 18719.12, -59700.37, 14403.87, -59449.74, 7001.48, 163248.31, 0.00, 0.00, 0.00, 1484601166772
35, 65846.52, -60157.84, 18693.57, -59689.19, 14375.93, -59239.77, 6982.08, 163244.42, 0.00, 0.00, 0.00, 1484601166776
36, 65862.05, -59928.20, 18715.43, -59689.13, 14387.17, -59219.40, 6991.29, 163240.13, 0.00, 0.00, 0.00, 1484601166780
37, 65885.59, -59986.98, 18740.22, -59702.60, 14415.62, -59334.96, 7021.06, 163233.95, 0.01, -0.02, 1.04, 1484601166786
38, 65875.64, -59886.11, 18723.92, -59707.27, 14403.96, -59356.08, 7005.75, 163229.86, 0.00, 0.00, 0.00, 1484601166787
39, 65848.86, -59399.11, 18693.12, -59694.89, 14375.61, -59221.13, 6976.56, 163227.20, 0.00, 0.00, 0.00, 1484601166792
40, 65855.93, -58826.75, 18697.57, -59688.32, 14385.11, -59127.31, 6988.63, 163221.81, 0.00, 0.00, 0.00, 1484601166796
41, 65883.28, -59094.46, 18727.54, -59700.55, 14410.75, -59284.51, 7014.51, 163215.31, 0.00, 0.00, 0.00, 1484601166800
42, 65876.98, -59546.70, 18725.51, -59714.45, 14405.34, -59313.14, 7008.99, 163208.44, 0.00, 0.00, 0.00, 1484601166804
43, 65851.27, -59640.98, 18697.97, -59701.38, 14378.41, -59148.44, 6984.58, 163204.72, 0.00, 0.00, 0.00, 1484601166808
44, 65856.98, -60003.93, 18700.99, -59692.50, 14380.62, -58981.11, 6983.51, 163201.91, 0.00, 0.00, 0.00, 1484601166813
45, 65883.77, -60517.26, 18727.25, -59703.96, 14406.01, -59159.07, 7005.06, 163198.38, 0.00, 0.00, 0.00, 1484601166815
46, 65884.70, -60547.57, 18728.88, -59715.75, 14411.31, -59269.94, 7008.86, 163191.48, 0.00, 0.00, 0.00, 1484601166819
47, 65854.23, -60186.88, 18701.14, -59709.38, 14382.25, -59166.25, 6982.35, 163184.84, 0.01, -0.02, 1.04, 1484601166824
48, 65852.02, -59780.12, 18701.12, -59699.43, 14376.95, -58982.81, 6975.69, 163180.72, 0.00, 0.00, 0.00, 1484601166827
49, 65874.41, -59728.98, 18722.51, -59700.77, 14403.84, -59116.11, 7001.88, 163177.70, 0.00, 0.00, 0.00, 1484601166831
50, 65884.52, -59768.07, 18734.65, -59711.77, 14411.60, -59177.52, 7014.51, 163173.78, 0.00, 0.00, 0.00, 1484601166836
51, 65863.30, -59460.13, 18708.21, -59710.43, 14392.71, -59143.63, 6993.21, 163169.66, 0.00, 0.00, 0.00, 1484601166840
52, 65845.87, -58792.24, 18688.83, -59700.73, 14380.89, -58944.48, 6978.75, 163165.56, 0.00, 0.00, 0.00, 1484601166844
53, 65868.29, -58680.28, 18711.07, -59701.08, 14403.33, -59011.09, 7002.53, 163158.72, 0.00, 0.00, 0.00, 1484601166846
54, 65889.05, -59211.27, 18729.71, -59715.32, 14419.91, -59151.92, 7018.96, 163153.00, 0.00, 0.00, 0.00, 1484601166852
55, 65864.02, -59475.80, 18708.23, -59715.12, 14396.69, -59109.34, 6996.72, 163149.59, 0.00, 0.00, 0.00, 1484601166856
56, 65842.72, -59594.09, 18689.32, -59696.95, 14375.93, -58852.63, 6977.86, 163146.27, 0.00, 0.00, 0.00, 1484601166860
57, 65863.26, -60170.29, 18713.46, -59699.25, 14394.72, -58869.46, 6997.59, 163139.97, 0.00, -0.02, 1.04, 1484601166863
58, 65889.86, -60407.46, 18738.72, -59709.04, 14421.01, -59049.17, 7023.50, 163133.11, 0.00, 0.00, 0.00, 1484601166868
59, 65875.41, -60244.45, 18721.78, -59705.84, 14406.84, -59074.79, 7008.66, 163131.58, 0.00, 0.00, 0.00, 1484601166872
60, 65843.07, -59790.07, 18693.01, -59698.11, 14379.84, -58877.31, 6980.02, 163128.70, 0.00, 0.00, 0.00, 1484601166875
61, 65856.20, -59547.95, 18705.50, -59692.81, 14391.80, -58849.26, 6993.95, 163122.33, 0.00, 0.00, 0.00, 1484601166879
62, 65897.48, -59599.89, 18739.01, -59699.00, 14424.00, -58972.91, 7027.41, 163117.27, 0.00, 0.00, 0.00, 1484601166884
63, 65892.13, -59505.50, 18737.58, -59702.76, 14413.70, -58969.18, 7017.15, 163113.50, 0.00, 0.00, 0.00, 1484601166888
64, 65858.48, -59009.25, 18710.18, -59694.67, 14386.77, -58846.78, 6987.96, 163109.75, 0.00, 0.00, 0.00, 1484601166892
65, 65876.76, -58431.46, 18725.26, -59697.73, 14399.98, -58742.93, 6998.29, 163102.48, 0.00, 0.00, 0.00, 1484601166896
66, 65907.63, -58730.35, 18750.52, -59702.22, 14434.22, -58912.29, 7028.46, 163099.20, 0.00, 0.00, 0.00, 1484601166899
67, 65882.21, -59195.69, 18720.57, -59701.53, 14419.62, -58953.64, 7020.44, 163093.09, 0.01, -0.02, 1.04, 1484601166903
68, 65843.72, -59302.57, 18687.73, -59699.65, 14386.79, -58785.73, 6988.29, 163088.38, 0.00, 0.00, 0.00, 1484601166907
69, 65848.33, -59666.71, 18695.74, -59702.27, 14387.37, -58610.56, 6988.12, 163084.22, 0.00, 0.00, 0.00, 1484601166912
70, 65870.12, -60154.33, 18719.32, -59715.57, 14412.81, -58782.70, 7009.57, 163078.30, 0.00, 0.00, 0.00, 1484601166916
71, 65869.72, -60187.08, 18718.89, -59722.32, 14412.09, -58888.82, 7013.04, 163072.08, 0.00, 0.00, 0.00, 1484601166920
72, 65846.59, -59832.69, 18695.42, -59711.48, 14385.20, -58796.78, 6978.53, 163071.13, 0.00, 0.00, 0.00, 1484601166923
73, 65842.52, -59419.54, 18695.18, -59698.11, 14382.03, -58608.33, 6975.98, 163068.06, 0.00, 0.00, 0.00, 1484601166927
74, 65874.05, -59357.67, 18724.75, -59701.08, 14406.97, -58732.80, 7002.71, 163062.67, 0.00, 0.00, 0.00, 1484601166931
75, 65892.74, -59398.95, 18746.09, -59710.70, 14425.57, -58805.02, 7019.45, 163055.52, 0.00, 0.00, 0.00, 1484601166935
76, 65860.42, -59102.39, 18710.26, -59708.04, 14397.94, -58785.73, 6992.21, 163051.97, 0.00, 0.00, 0.00, 1484601166940
77, 65847.74, -58427.37, 18694.89, -59691.25, 14386.23, -58580.48, 6978.44, 163049.78, 0.01, -0.02, 1.03, 1484601166944
78, 65880.06, -58304.32, 18730.61, -59688.23, 14416.61, -58638.41, 7008.93, 163045.05, 0.00, 0.00, 0.00, 1484601166948
79, 65897.99, -58839.64, 18747.03, -59700.28, 14432.77, -58775.52, 7023.79, 163038.27, 0.00, 0.00, 0.00, 1484601166952
80, 65876.42, -59118.89, 18722.63, -59700.52, 14410.46, -58742.13, 7000.19, 163034.31, 0.00, 0.00, 0.00, 1484601166954
81, 65849.60, -59242.27, 18702.82, -59690.06, 14392.49, -58491.63, 6983.71, 163032.86, 0.00, 0.00, 0.00, 1484601166959
82, 65867.59, -59811.01, 18723.56, -59693.82, 14410.04, -58499.59, 7004.77, 163027.11, 0.00, 0.00, 0.00, 1484601166963
83, 65894.93, -60050.06, 18750.50, -59711.63, 14429.39, -58684.37, 7024.50, 163021.03, 0.00, 0.00, 0.00, 1484601166968
84, 65877.59, -59899.92, 18731.68, -59714.83, 14413.03, -58690.92, 7005.84, 163016.83, 0.00, 0.00, 0.00, 1484601166972
85, 65844.64, -59447.55, 18697.88, -59707.63, 14384.33, -58511.70, 6977.72, 163013.70, 0.00, 0.00, 0.00, 1484601166976
86, 65858.72, -59194.08, 18709.17, -59704.39, 14398.28, -58473.82, 6990.51, 163008.31, 0.00, 0.00, 0.00, 1484601166979
87, 65886.64, -59245.44, 18735.19, -59710.80, 14425.01, -58616.44, 7017.35, 163001.39, 0.01, -0.02, 1.04, 1484601166983
88, 65878.45, -59161.80, 18728.39, -59713.44, 14422.40, -58622.48, 7011.52, 162997.45, 0.00, 0.00, 0.00, 1484601166987
89, 65850.77, -58676.59, 18701.44, -59703.65, 14395.39, -58498.13, 6987.24, 162995.73, 0.00, 0.00, 0.00, 1484601166991
90, 65861.88, -58087.24, 18715.99, -59695.79, 14396.15, -58387.25, 6992.99, 162992.16, 0.00, 0.00, 0.00, 1484601166995
91, 65891.02, -58365.52, 18747.05, -59703.12, 14426.40, -58541.12, 7021.53, 162987.11, 0.00, 0.00, 0.00, 1484601167000
92, 65884.85, -58838.20, 18740.22, -59709.02, 14429.21, -58589.48, 7023.59, 162979.44, 0.00, 0.00, 0.00, 1484601167004
93, 65852.95, -58960.08, 18706.87, -59703.14, 14399.84, -58437.83, 6990.13, 162975.23, 0.00, 0.00, 0.00, 1484601167007
94, 65852.73, -59336.17, 18698.33, -59695.67, 14392.44, -58259.21, 6984.16, 162971.66, 0.00, 0.00, 0.00, 1484601167012
95, 65883.91, -59771.76, 18735.43, -59697.26, 14419.83, -58422.54, 7013.89, 162964.50, 0.00, 0.00, 0.00, 1484601167015
96, 65889.54, -59806.38, 18743.57, -59706.02, 14426.49, -58520.62, 7021.22, 162958.20, 0.00, 0.00, 0.00, 1484601167019
97, 65860.80, -59469.74, 18713.46, -59706.00, 14398.05, -58450.28, 6988.54, 162956.89, 0.01, -0.02, 1.04, 1484601167023
98, 65850.54, -59057.06, 18708.70, -59696.84, 14384.53, -58267.51, 6980.54, 162954.73, 0.00, 0.00, 0.00, 1484601167028
99, 65878.44, -58992.75, 18733.98, -59703.92, 14408.09, -58378.17, 7002.40, 162948.77, 0.00, 0.00, 0.00, 1484601167032
100, 65889.68, -59045.86, 18748.15, -59712.80, 14424.43, -58421.20, 7018.13, 162943.63, 0.00, 0.00, 0.00, 1484601167036
101, 65862.54, -58770.58, 18721.44, -59700.32, 14402.97, -58428.31, 6994.22, 162939.67, 0.00, 0.00, 0.00, 1484601167040
102, 65848.77, -58135.79, 18699.36, -59687.05, 14391.97, -58235.39, 6979.56, 162937.33, 0.00, 0.00, 0.00, 1484601167043
103, 65873.43, -57932.28, 18723.18, -59692.59, 14409.83, -58294.64, 7003.38, 162931.09, 0.00, 0.00, 0.00, 1484601167047
104, 65896.36, -58457.25, 18743.37, -59708.39, 14427.74, -58400.68, 7025.91, 162927.17, 0.00, 0.00, 0.00, 1484601167051
105, 65878.10, -58754.84, 18730.29, -59708.57, 14410.19, -58369.93, 7009.48, 162922.84, 0.00, 0.00, 0.00, 1484601167056
106, 65852.51, -58897.94, 18705.84, -59697.71, 14391.01, -58143.77, 6987.58, 162919.36, 0.00, 0.00, 0.00, 1484601167060
107, 65867.93, -59444.21, 18721.57, -59695.76, 14406.03, -58150.41, 7000.92, 162914.33, 0.01, -0.02, 1.04, 1484601167064
108, 65888.83, -59660.20, 18742.94, -59715.52, 14425.79, -58324.80, 7017.84, 162909.45, 0.00, 0.00, 0.00, 1484601167068
109, 65875.93, -59523.59, 18732.10, -59717.54, 14412.63, -58345.98, 7006.85, 162904.41, 0.00, 0.00, 0.00, 1484601167071
110, 65847.14, -59076.62, 18699.20, -59700.88, 14388.26, -58179.38, 6987.56, 162901.47, 0.00, 0.00, 0.00, 1484601167075
111, 65859.21, -58820.78, 18708.48, -59696.34, 14398.72, -58136.59, 6997.53, 162896.31, 0.00, 0.00, 0.00, 1484601167079
112, 65888.05, -58875.03, 18743.14, -59712.19, 14422.91, -58249.32, 7021.96, 162889.67, 0.00, 0.00, 0.00, 1484601167084
113, 65881.16, -58807.04, 18737.09, -59719.63, 14412.74, -58254.05, 7015.27, 162885.05, 0.00, 0.00, 0.00, 1484601167089
114, 65849.38, -58353.68, 18707.49, -59703.72, 14385.92, -58158.43, 6978.80, 162883.55, 0.00, 0.00, 0.00, 1484601167093
115, 65853.47, -57762.96, 18709.46, -59694.55, 14389.83, -58051.19, 6980.99, 162877.84, 0.00, 0.00, 0.00, 1484601167096
116, 65887.71, -57964.73, 18737.78, -59703.16, 14419.02, -58197.48, 7012.30, 162871.25, 0.00, 0.00, 0.00, 1484601167099
117, 65880.55, -58452.25, 18725.96, -59715.99, 14416.65, -58203.79, 7011.38, 162865.11, 0.00, -0.02, 1.04, 1484601167103
118, 65847.86, -58582.20, 18692.27, -59707.30, 14383.41, -58087.91, 6979.85, 162862.19, 0.00, 0.00, 0.00, 1484601167107
119, 65845.58, -58924.58, 18693.14, -59701.48, 14377.29, -57911.80, 6973.14, 162858.50, 0.00, 0.00, 0.00, 1484601167112
120, 65871.95, -59444.04, 18722.07, -59708.82, 14404.98, -58075.26, 7004.72, 162851.09, 0.00, 0.00, 0.00, 1484601167117
121, 65876.71, -59504.23, 18727.61, -59722.85, 14411.80, -58161.92, 7011.16, 162848.17, 0.00, 0.00, 0.00, 1484601167119
122, 65846.20, -59179.32, 18697.97, -59724.39, 14383.30, -58101.37, 6980.74, 162845.59, 0.00, 0.00, 0.00, 1484601167123
123, 65833.15, -58764.10, 18687.98, -59713.73, 14368.06, -57923.02, 6967.11, 162842.98, 0.00, 0.00, 0.00, 1484601167127
124, 65865.07, -58691.45, 18715.41, -59716.08, 14386.70, -58032.41, 6990.57, 162838.52, 0.00, 0.00, 0.00, 1484601167131
125, 65877.02, -58749.23, 18729.00, -59725.85, 14406.08, -58074.19, 7007.81, 162833.09, 0.00, 0.00, 0.00, 1484601167135
126, 65851.05, -58490.18, 18702.06, -59724.82, 14380.69, -58073.68, 6978.57, 162828.94, 0.00, 0.00, 0.00, 1484601167140
127, 65832.75, -57950.38, 18690.91, -59711.54, 14362.87, -57891.91, 6962.70, 162826.00, 0.01, -0.02, 1.04, 1484601167144
128, 65853.69, -57581.38, 18712.37, -59715.03, 14383.59, -57946.65, 6985.99, 162820.25, 0.00, 0.00, 0.00, 1484601167147
129, 65868.78, -58011.18, 18724.57, -59728.96, 14400.80, -58046.25, 7005.68, 162812.38, 0.00, 0.00, 0.00, 1484601167152
130, 65852.69, -58322.72, 18706.29, -59729.56, 14387.93, -58030.13, 6988.70, 162809.75, 0.00, 0.00, 0.00, 1484601167156
131, 65822.53, -58415.16, 18675.71, -59724.35, 14359.16, -57804.22, 6961.09, 162807.17, 0.00, 0.00, 0.00, 1484601167160
132, 65833.15, -58990.30, 18694.87, -59723.39, 14374.41, -57794.10, 6979.29, 162803.13, 0.00, 0.00, 0.00, 1484601167164
133, 65862.19, -59338.67, 18724.57, -59734.48, 14399.46, -57960.11, 7004.97, 162797.00, 0.00, 0.00, 0.00, 1484601167168
134, 65854.36, -59213.66, 18707.27, -59737.20, 14387.21, -57988.38, 6989.79, 162790.23, 0.00, 0.00, 0.00, 1484601167173
135, 65823.16, -58767.90, 18674.52, -59724.33, 14361.53, -57823.56, 6961.90, 162787.39, 0.00, 0.00, 0.00, 1484601167176
136, 65839.25, -58497.26, 18690.71, -59721.63, 14372.13, -57769.04, 6978.01, 162782.56, 0.00, 0.00, 0.00, 1484601167180
137, 65865.70, -58545.86, 18720.05, -59736.27, 14395.31, -57897.32, 7000.12, 162775.17, 0.00, 0.00, 0.00, 1484601167184
138, 65860.02, -58483.58, 18715.47, -59741.76, 14392.29, -57905.21, 6994.82, 162771.19, 0.01, -0.03, 1.04, 1484601167188
139, 65830.67, -58037.58, 18686.88, -59731.55, 14362.31, -57809.52, 6961.47, 162769.16, 0.00, 0.00, 0.00, 1484601167192
140, 65835.48, -57435.89, 18694.57, -59719.66, 14369.44, -57690.10, 6966.77, 162766.09, 0.00, 0.00, 0.00, 1484601167195
141, 65868.15, -57604.94, 18730.72, -59725.22, 14401.00, -57838.51, 7001.04, 162758.61, 0.00, 0.00, 0.00, 1484601167200
142, 65873.31, -58093.43, 18732.04, -59737.02, 14403.53, -57866.54, 7003.32, 162754.25, 0.00, 0.00, 0.00, 1484601167203
143, 65841.60, -58226.29, 18700.34, -59726.34, 14379.75, -57742.80, 6977.52, 162751.89, 0.00, 0.00, 0.00, 1484601167208
144, 65839.54, -58556.11, 18699.87, -59715.07, 14371.68, -57554.06, 6970.61, 162749.50, 0.00, 0.00, 0.00, 1484601167211
145, 65865.11, -59064.41, 18718.24, -59724.78, 14395.35, -57706.88, 7001.93, 162744.14, 0.00, 0.00, 0.00, 1484601167215
146, 65870.52, -59123.31, 18727.99, -59735.46, 14403.35, -57813.48, 7009.60, 162738.59, 0.00, 0.00, 0.00, 1484601167219
147, 65838.31, -58801.20, 18706.42, -59729.56, 14373.98, -57755.39, 6979.89, 162736.81, 0.00, 0.00, 0.00, 1484601167223
148, 65834.89, -58374.37, 18689.28, -59715.79, 14364.30, -57563.47, 6970.39, 162731.67, 0.01, -0.03, 1.04, 1484601167229
149, 65848.21, -58287.96, 18704.34, -59716.50, 14384.24, -57665.98, 6992.72, 162725.77, 0.00, 0.00, 0.00, 1484601167231
150, 65862.77, -58342.57, 18721.62, -59729.16, 14397.36, -57721.30, 7006.91, 162719.11, 0.00, 0.00, 0.00, 1484601167235
151, 65841.15, -58082.23, 18697.77, -59727.68, 14374.14, -57723.64, 6980.29, 162717.56, 0.00, 0.00, 0.00, 1484601167239
152, 65819.60, -57425.94, 18680.31, -59715.77, 14356.61, -57526.88, 6960.20, 162714.72, 0.00, 0.00, 0.00, 1484601167243
153, 65841.22, -57215.57, 18701.10, -59719.48, 14379.12, -57561.93, 6982.66, 162711.27, 0.00, 0.00, 0.00, 1484601167247
154, 65864.29, -57744.21, 18720.01, -59733.71, 14399.22, -57697.85, 7001.33, 162703.70, 0.00, 0.00, 0.00, 1484601167251
155, 65848.64, -58057.78, 18705.35, -59735.30, 14384.80, -57684.33, 6987.78, 162699.64, 0.00, 0.00, 0.00, 1484601167256
156, 65827.92, -58180.65, 18685.70, -59717.18, 14365.98, -57438.01, 6969.32, 162698.14, 0.00, 0.00, 0.00, 1484601167259
157, 65846.27, -58719.33, 18708.72, -59713.55, 14380.91, -57416.91, 6982.71, 162690.56, 0.00, 0.00, 0.00, 1484601167262
158, 65870.52, -58951.32, 18731.41, -59725.40, 14408.31, -57613.41, 7009.19, 162685.56, 0.01, -0.03, 1.03, 1484601167267
159, 65858.48, -58826.13, 18723.54, -59728.73, 14400.31, -57637.05, 7002.11, 162682.34, 0.00, 0.00, 0.00, 1484601167271
160, 65833.44, -58377.26, 18694.51, -59718.20, 14372.86, -57463.36, 6976.29, 162679.28, 0.00, 0.00, 0.00, 1484601167275
161, 65843.50, -58094.02, 18698.71, -59710.85, 14384.11, -57397.73, 6984.61, 162673.05, 0.00, 0.00, 0.00, 1484601167279
162, 65871.46, -58134.05, 18725.53, -59723.32, 14411.20, -57528.18, 7009.75, 162667.41, 0.00, 0.00, 0.00, 1484601167284
163, 65864.30, -58077.25, 18721.98, -59733.31, 14404.33, -57541.12, 7001.97, 162662.61, 0.00, 0.00, 0.00, 1484601167288
164, 65827.65, -57608.25, 18691.06, -59723.41, 14373.78, -57445.64, 6968.96, 162662.77, 0.00, 0.00, 0.00, 1484601167290
165, 65829.39, -56992.61, 18691.22, -59716.37, 14368.39, -57312.66, 6971.87, 162656.52, 0.00, 0.00, 0.00, 1484601167294
166, 65864.40, -57253.88, 18720.14, -59727.12, 14392.42, -57467.16, 6997.84, 162651.00, 0.00, 0.00, 0.00, 1484601167299
167, 65861.38, -57750.09, 18718.60, -59734.54, 14397.21, -57531.45, 7001.84, 162647.11, 0.00, 0.00, 0.00, 1484601167304
168, 65831.41, -57890.05, 18688.58, -59723.99, 14370.41, -57391.66, 6971.17, 162644.05, 0.01, -0.03, 1.04, 1484601167307
169, 65827.65, -58228.91, 18683.44, -59717.04, 14359.01, -57190.63, 6965.09, 162640.94, 0.00, 0.00, 0.00, 1484601167311
170, 65857.60, -58682.85, 18711.14, -59725.00, 14388.91, -57336.47, 6998.91, 162633.61, 0.00, 0.00, 0.00, 1484601167316
171, 65867.99, -58734.73, 18715.63, -59729.54, 14401.81, -57455.07, 7004.57, 162629.92, 0.00, 0.00, 0.00, 1484601167319
172, 65836.10, -58419.28, 18690.04, -59724.64, 14373.96, -57395.61, 6975.00, 162626.59, 0.00, 0.00, 0.00, 1484601167324
173, 65820.95, -57985.16, 18679.96, -59716.44, 14361.53, -57197.91, 6963.51, 162622.48, 0.00, 0.00, 0.00, 1484601167327
174, 65843.61, -57887.77, 18699.13, -59721.04, 14379.91, -57293.71, 6983.58, 162619.94, 0.00, 0.00, 0.00, 1484601167331
175, 65857.31, -57943.97, 18714.51, -59733.70, 14395.80, -57352.27, 7001.44, 162613.25, 0.00, 0.00, 0.00, 1484601167335
176, 65833.66, -57688.87, 18700.81, -59729.27, 14376.49, -57354.89, 6976.83, 162607.69, 0.00, 0.00, 0.00, 1484601167340
177, 65813.44, -57013.20, 18672.96, -59714.58, 14357.93, -57157.97, 6956.58, 162603.19, 0.00, 0.00, 0.00, 1484601167343
178, 65831.27, -56838.23, 18682.35, -59719.14, 14377.29, -57183.85, 6973.83, 162599.77, 0.00, -0.02, 1.04, 1484601167347
179, 65853.89, -57377.15, 18704.68, -59730.86, 14398.61, -57339.98, 6993.70, 162596.16, 0.00, 0.00, 0.00, 1484601167352
180, 65841.11, -57702.50, 18692.00, -59730.54, 14384.15, -57315.32, 6982.15, 162592.16, 0.00, 0.00, 0.00, 1484601167355
181, 65811.65, -57837.08, 18680.29, -59717.02, 14361.73, -57075.76, 6956.00, 162589.44, 0.00, 0.00, 0.00, 1484601167360
182, 65827.85, -58357.12, 18690.04, -59713.11, 14372.93, -57045.07, 6967.46, 162585.25, 0.00, 0.00, 0.00, 1484601167363
183, 65853.80, -58570.46, 18709.35, -59725.07, 14399.24, -57230.79, 6994.02, 162577.23, 0.00, 0.00, 0.00, 1484601167368
184, 65844.05, -58453.86, 18701.46, -59729.71, 14387.46, -57275.58, 6983.09, 162574.25, 0.00, 0.00, 0.00, 1484601167372
185, 65815.63, -58006.44, 18673.32, -59719.99, 14358.51, -57099.79, 6955.59, 162571.73, 0.00, 0.00, 0.00, 1484601167374
186, 65824.90, -57711.53, 18683.17, -59714.49, 14365.49, -57023.32, 6959.06, 162567.78, 0.00, 0.00, 0.00, 1484601167379
187, 65850.74, -57743.14, 18711.61, -59727.01, 14391.59, -57165.68, 6989.01, 162561.27, 0.00, 0.00, 0.00, 1484601167383
188, 65843.79, -57692.11, 18703.89, -59736.02, 14384.93, -57184.79, 6983.06, 162556.59, 0.01, -0.02, 1.04, 1484601167387
189, 65811.89, -57212.51, 18672.87, -59726.41, 14358.89, -57083.61, 6953.43, 162555.20, 0.00, 0.00, 0.00, 1484601167392
190, 65815.47, -56594.04, 18680.43, -59713.93, 14358.74, -56937.89, 6954.01, 162553.23, 0.00, 0.00, 0.00, 1484601167395
191, 65846.85, -56884.92, 18711.67, -59718.67, 14388.00, -57092.95, 6987.33, 162546.08, 0.00, 0.00, 0.00, 1484601167400
192, 65849.45, -57387.30, 18713.35, -59727.75, 14393.16, -57162.26, 6990.84, 162540.45, 0.00, 0.00, 0.00, 1484601167403
193, 65823.34, -57536.72, 18681.16, -59722.43, 14361.20, -57020.59, 6957.05, 162536.27, 0.00, 0.00, 0.00, 1484601167407
194, 65820.25, -57866.63, 18676.47, -59710.74, 14353.44, -56814.91, 6949.02, 162531.67, 0.00, 0.00, 0.00, 1484601167411
195, 65848.93, -58310.78, 18706.69, -59718.23, 14381.04, -56958.37, 6975.15, 162525.77, 0.00, 0.00, 0.00, 1484601167416
196, 65863.66, -58364.61, 18717.73, -59728.48, 14395.48, -57088.25, 6988.29, 162520.69, 0.00, 0.00, 0.00, 1484601167420
197, 65835.23, -58056.66, 18686.79, -59723.55, 14367.79, -57027.97, 6959.26, 162517.47, 0.00, 0.00, 0.00, 1484601167423
198, 65822.66, -57615.42, 18678.28, -59711.92, 14358.63, -56827.65, 6951.35, 162514.97, 0.01, -0.02, 1.04, 1484601167428
199, 65849.76, -57504.13, 18711.34, -59715.30, 14383.32, -56916.26, 6972.83, 162507.08, 0.00, 0.00, 0.00, 1484601167430
200, 65871.02, -57557.10, 18724.53, -59722.09, 14402.14, -56991.78, 6993.66, 162500.48, 0.00, 0.00, 0.00, 1484601167434
201, 65846.92, -57311.05, 18699.22, -59723.34, 14376.15, -56995.47, 6968.22, 162498.31, 0.00, 0.00, 0.00, 1484601167439
202, 65820.77, -56631.47, 18682.32, -59711.14, 14356.46, -56795.76, 6947.37, 162495.52, 0.00, 0.00, 0.00, 1484601167443
203, 65842.72, -56444.68, 18700.68, -59708.28, 14379.75, -56809.32, 6970.84, 162489.75, 0.00, 0.00, 0.00, 1484601167447
204, 65870.79, -56983.31, 18729.00, -59720.53, 14404.94, -56961.92, 6996.56, 162485.80, 0.00, 0.00, 0.00, 1484601167452
205, 65854.23, -57321.07, 18715.99, -59722.63, 14389.40, -56947.30, 6978.50, 162482.27, 0.00, 0.00, 0.00, 1484601167456
206, 65826.24, -57466.02, 18686.19, -59711.92, 14359.97, -56707.87, 6950.83, 162479.41, 0.00, 0.00, 0.00, 1484601167458
207, 65838.94, -57965.76, 18697.44, -59710.27, 14370.74, -56666.23, 6963.91, 162476.70, 0.00, 0.00, 0.00, 1484601167463
208, 65862.90, -58160.24, 18720.14, -59723.84, 14393.23, -56861.96, 6986.10, 162468.81, 0.01, -0.03, 1.04, 1484601167468
209, 65845.35, -58053.87, 18706.20, -59734.16, 14381.13, -56909.20, 6972.43, 162464.45, 0.00, 0.00, 0.00, 1484601167472
210, 65817.75, -57608.13, 18680.40, -59723.17, 14350.62, -56736.41, 6942.72, 162460.41, 0.00, 0.00, 0.00, 1484601167476
211, 65836.26, -57298.61, 18695.71, -59710.49, 14366.38, -56647.63, 6956.35, 162456.92, 0.00, 0.00, 0.00, 1484601167479
212, 65866.38, -57325.43, 18721.87, -59722.56, 14393.88, -56791.85, 6981.66, 162452.11, 0.00, 0.00, 0.00, 1484601167484
213, 65865.18, -57279.41, 18721.02, -59728.80, 14388.96, -56798.17, 6977.48, 162447.78, 0.00, 0.00, 0.00, 1484601167487
214, 65835.72, -56780.58, 18697.05, -59721.16, 14364.37, -56705.99, 6952.76, 162445.20, 0.00, 0.00, 0.00, 1484601167490
215, 65834.89, -56173.69, 18698.33, -59717.13, 14359.86, -56550.85, 6948.64, 162441.81, 0.00, 0.00, 0.00, 1484601167495
216, 65861.34, -56508.09, 18717.15, -59726.86, 14388.04, -56703.78, 6975.06, 162436.52, 0.00, 0.00, 0.00, 1484601167500
217, 65867.64, -57013.62, 18722.20, -59728.64, 14397.96, -56806.02, 6985.70, 162432.31, 0.00, 0.00, 0.00, 1484601167503
218, 65838.98, -57166.53, 18694.30, -59717.76, 14370.92, -56657.89, 6960.76, 162427.03, 0.01, -0.03, 1.04, 1484601167508
219, 65831.49, -57490.20, 18686.13, -59713.33, 14359.39, -56440.75, 6952.71, 162423.48, 0.00, 0.00, 0.00, 1484601167512
220, 65856.53, -57926.93, 18713.01, -59724.15, 14381.18, -56575.88, 6975.35, 162420.48, 0.00, 0.00, 0.00, 1484601167514
221, 65870.21, -57984.71, 18722.63, -59737.20, 14395.10, -56701.21, 6986.13, 162414.05, 0.00, 0.00, 0.00, 1484601167518
222, 65841.17, -57683.23, 18690.88, -59733.47, 14372.37, -56646.40, 6962.32, 162408.69, 0.00, 0.00, 0.00, 1484601167522
223, 65826.09, -57234.59, 18678.01, -59720.93, 14358.96, -56441.80, 6947.88, 162407.17, 0.00, 0.00, 0.00, 1484601167527
224, 65855.37, -57110.74, 18706.78, -59718.52, 14384.87, -56524.72, 6974.50, 162403.23, 0.00, 0.00, 0.00, 1484601167532
225, 65872.94, -57163.60, 18727.97, -59726.95, 14405.03, -56620.07, 6992.09, 162398.72, 0.00, 0.00, 0.00, 1484601167535
226, 65848.33, -56926.05, 18704.14, -59726.79, 14380.20, -56621.08, 6970.21, 162393.08, 0.00, 0.00, 0.00, 1484601167539
227, 65829.30, -56241.82, 18687.42, -59713.78, 14363.25, -56414.95, 6952.44, 162390.77, 0.00, 0.00, 0.00, 1484601167542
228, 65852.71, -56043.06, 18709.19, -59710.63, 14382.16, -56418.68, 6971.80, 162387.45, 0.00, -0.03, 1.04, 1484601167546
229, 65875.71, -56581.45, 18726.92, -59724.91, 14401.00, -56586.75, 6990.11, 162382.33, 0.00, 0.00, 0.00, 1484601167551
230, 65863.66, -56926.56, 18718.33, -59729.63, 14389.65, -56584.94, 6975.06, 162377.42, 0.00, 0.00, 0.00, 1484601167556
231, 65835.67, -57048.94, 18692.94, -59721.31, 14360.82, -56337.84, 6944.58, 162373.64, 0.00, 0.00, 0.00, 1484601167560
232, 65847.25, -57561.98, 18698.15, -59721.49, 14367.37, -56282.83, 6955.28, 162368.88, 0.00, 0.00, 0.00, 1484601167562
233, 65872.40, -57797.45, 18725.62, -59734.95, 14395.26, -56476.13, 6984.63, 162362.75, 0.00, 0.00, 0.00, 1484601167567
234, 65864.17, -57695.80, 18719.41, -59733.98, 14386.97, -56516.88, 6977.37, 162359.02, 0.00, 0.00, 0.00, 1484601167571
235, 65839.66, -57252.52, 18691.15, -59725.60, 14362.34, -56350.36, 6950.54, 162355.78, 0.00, 0.00, 0.00, 1484601167574
236, 65843.41, -56936.69, 18699.67, -59722.45, 14367.79, -56257.86, 6954.05, 162353.03, 0.00, 0.00, 0.00, 1484601167579
237, 65864.58, -56958.48, 18717.80, -59738.77, 14393.63, -56390.48, 6980.40, 162346.33, 0.00, 0.00, 0.00, 1484601167584
238, 65860.89, -56920.82, 18710.82, -59753.65, 14388.53, -56424.59, 6978.68, 162342.02, 0.00, -0.03, 1.04, 1484601167588
239, 65829.55, -56436.23, 18685.81, -59745.12, 14353.55, -56336.12, 6945.11, 162339.03, 0.00, 0.00, 0.00, 1484601167590
240, 65825.69, -55813.87, 18678.88, -59738.97, 14350.74, -56171.63, 6942.21, 162336.42, 0.00, 0.00, 0.00, 1484601167594
241, 65857.29, -56128.16, 18703.45, -59746.28, 14382.34, -56317.32, 6974.30, 162330.88, 0.00, 0.00, 0.00, 1484601167599
242, 65864.06, -56642.58, 18706.89, -59753.18, 14391.13, -56416.74, 6984.81, 162325.30, 0.00, 0.00, 0.00, 1484601167603
243, 65840.01, -56808.05, 18688.11, -59743.75, 14370.47, -56277.73, 6961.79, 162322.81, 0.00, 0.00, 0.00, 1484601167607
244, 65832.97, -57136.78, 18687.69, -59737.18, 14360.46, -56057.52, 6950.88, 162317.69, 0.00, 0.00, 0.00, 1484601167612
245, 65861.38, -57543.22, 18709.93, -59744.91, 14384.89, -56187.79, 6976.29, 162312.39, 0.00, 0.00, 0.00, 1484601167616
246, 65871.17, -57598.79, 18720.23, -59757.07, 14397.34, -56317.30, 6988.09, 162307.67, 0.00, 0.00, 0.00, 1484601167619
247, 65842.67, -57305.49, 18694.87, -59753.41, 14371.34, -56275.34, 6962.88, 162305.73, 0.00, 0.00, 0.00, 1484601167622
248, 65826.65, -56853.05, 18682.50, -59742.59, 14353.46, -56067.65, 6946.45, 162300.30, 0.00, -0.03, 1.04, 1484601167627
249, 65851.05, -56719.98, 18710.69, -59741.38, 14378.52, -56143.13, 6970.57, 162294.38, 0.00, 0.00, 0.00, 1484601167631
250, 65867.41, -56774.50, 18722.36, -59749.52, 14401.03, -56239.58, 6995.25, 162290.13, 0.00, 0.00, 0.00, 1484601167635
251, 65847.45, -56544.70, 18700.21, -59749.21, 14381.87, -56234.71, 6975.82, 162285.81, 0.00, 0.00, 0.00, 1484601167640
252, 65823.94, -55861.88, 18677.41, -59736.69, 14355.30, -56039.29, 6951.08, 162283.14, 0.00, 0.00, 0.00, 1484601167645
253, 65847.39, -55653.11, 18694.06, -59730.88, 14373.09, -56033.05, 6970.70, 162279.38, 0.00, 0.00, 0.00, 1484601167646
254, 65878.03, -56188.17, 18721.55, -59739.82, 14400.38, -56206.12, 6995.58, 162273.97, 0.00, 0.00, 0.00, 1484601167651
255, 65858.61, -56543.25, 18710.76, -59741.52, 14386.12, -56197.09, 6981.19, 162269.02, 0.00, 0.00, 0.00, 1484601167655
0, 65829.53, -56650.85, 18685.01, -59732.71, 14355.83, -55953.81, 6951.37, 162266.17, 0.00, 0.00, 0.00, 1484601167659
1, 65842.38, -57161.25, 18695.45, -59729.36, 14370.79, -55887.23, 6962.90, 162262.02, 0.00, 0.00, 0.00, 1484601167663
2, 65871.28, -57426.82, 18718.29, -59741.90, 14397.18, -56088.95, 6988.00, 162257.03, 0.01, -0.03, 1.04, 1484601167666
3, 65864.22, -57333.59, 18709.97, -59749.77, 14385.38, -56146.42, 6976.65, 162253.20, 0.00, 0.00, 0.00, 1484601167672
4, 65829.26, -56893.17, 18687.69, -59738.88, 14358.04, -55976.52, 6953.36, 162249.47, 0.00, 0.00, 0.00, 1484601167677
5, 65835.81, -56565.60, 18690.77, -59731.84, 14364.39, -55873.59, 6957.49, 162246.23, 0.00, 0.00, 0.00, 1484601167680
6, 65863.97, -56578.68, 18716.21, -59743.02, 14390.16, -56029.27, 6988.52, 162239.86, 0.00, 0.00, 0.00, 1484601167683
7, 65864.82, -56543.90, 18716.77, -59753.74, 14392.11, -56054.80, 6989.64, 162234.70, 0.00, 0.00, 0.00, 1484601167687
8, 65835.23, -56078.34, 18678.26, -59745.23, 14368.06, -55963.51, 6964.54, 162231.61, 0.00, 0.00, 0.00, 1484601167691
9, 65834.76, -55432.86, 18678.26, -59729.80, 14374.43, -55793.24, 6966.99, 162227.75, 0.00, 0.00, 0.00, 1484601167695
10, 65868.27, -55704.03, 18715.96, -59735.04, 14405.23, -55932.40, 6998.78, 162222.77, 0.00, 0.00, 0.00, 1484601167700
11, 65873.78, -56224.52, 18721.87, -59744.87, 14410.15, -56036.31, 7005.77, 162217.17, 0.00, 0.00, 0.00, 1484601167703
12, 65847.77, -56396.89, 18696.74, -59737.43, 14384.35, -55908.33, 6974.01, 162214.89, 0.01, -0.03, 1.04, 1484601167707
13, 65841.22, -56702.98, 18691.24, -59729.63, 14373.74, -55683.09, 6962.19, 162213.02, 0.00, 0.00, 0.00, 1484601167711
14, 65862.12, -57142.37, 18714.91, -59738.25, 14396.60, -55803.05, 6983.11, 162206.41, 0.00, 0.00, 0.00, 1484601167714
15, 65868.24, -57209.38, 18718.47, -59753.12, 14404.87, -55939.08, 6993.59, 162200.50, 0.00, 0.00, 0.00, 1484601167719
16, 65844.30, -56923.19, 18696.74, -59754.61, 14375.14, -55904.59, 6965.88, 162196.81, 0.00, 0.00, 0.00, 1484601167723
17, 65825.21, -56465.46, 18682.79, -59743.91, 14358.11, -55694.55, 6949.22, 162193.66, 0.00, 0.00, 0.00, 1484601167728
18, 65847.32, -56321.28, 18703.38, -59744.18, 14376.55, -55757.86, 6973.01, 162188.52, 0.00, 0.00, 0.00, 1484601167730
19, 65873.65, -56374.20, 18722.51, -59755.93, 14394.54, -55827.14, 6991.42, 162181.66, 0.00, 0.00, 0.00, 1484601167734
20, 65846.96, -56152.07, 18696.88, -59749.59, 14378.79, -55837.54, 6971.40, 162178.70, 0.00, 0.00, 0.00, 1484601167739
21, 65826.63, -55453.07, 18679.98, -59731.23, 14360.77, -55643.70, 6954.19, 162178.48, 0.00, 0.00, 0.00, 1484601167743
22, 65848.64, -55252.37, 18698.22, -59727.14, 14383.10, -55626.45, 6977.52, 162173.72, 0.01, -0.02, 1.04, 1484601167747
23, 65873.12, -55791.72, 18719.70, -59734.70, 14407.55, -55814.67, 7000.81, 162165.81, 0.00, 0.00, 0.00, 1484601167751
24, 65851.91, -56157.32, 18705.35, -59741.25, 14390.59, -55825.04, 6984.67, 162162.38, 0.00, 0.00, 0.00, 1484601167756
25, 65823.16, -56275.70, 18677.05, -59739.08, 14364.59, -55578.10, 6957.63, 162161.00, 0.00, 0.00, 0.00, 1484601167759
26, 65837.51, -56774.19, 18684.36, -59739.95, 14372.73, -55504.90, 6964.78, 162155.86, 0.00, 0.00, 0.00, 1484601167763
27, 65857.16, -57020.80, 18709.77, -59754.97, 14396.62, -55702.36, 6987.76, 162150.03, 0.00, 0.00, 0.00, 1484601167767
28, 65844.80, -56936.86, 18698.69, -59764.81, 14389.87, -55773.50, 6981.21, 162146.02, 0.00, 0.00, 0.00, 1484601167771
29, 65819.27, -56497.54, 18677.34, -59750.39, 14365.26, -55607.72, 6952.98, 162144.27, 0.00, 0.00, 0.00, 1484601167776
30, 65827.38, -56157.64, 18684.72, -59740.64, 14367.68, -55492.20, 6955.91, 162139.61, 0.00, 0.00, 0.00, 1484601167778
31, 65855.95, -56163.72, 18713.86, -59747.30, 14390.37, -55633.87, 6982.89, 162133.00, 0.00, 0.00, 0.00, 1484601167783
32, 65861.67, -56135.06, 18717.24, -59753.39, 14390.37, -55652.78, 6985.43, 162128.08, 0.00, 0.00, 0.00, 1484601167787
33, 65824.08, -55673.19, 18679.38, -59752.18, 14354.98, -55579.04, 6947.37, 162125.56, 0.01, -0.02, 1.04, 1484601167790
34, 65821.51, -55027.73, 18674.39, -59743.21, 14352.14, -55403.91, 6947.17, 162123.19, 0.00, 0.00, 0.00, 1484601167794
35, 65855.23, -55310.42, 18704.23, -59744.58, 14382.39, -55537.63, 6981.52, 162117.22, 0.00, 0.00, 0.00, 1484601167800
36, 65871.51, -55838.57, 18714.49, -59753.09, 14388.47, -55645.36, 6987.02, 162112.19, 0.00, 0.00, 0.00, 1484601167802
37, 65842.63, -56023.08, 18688.87, -59746.28, 14360.30, -55520.17, 6959.51, 162106.95, 0.00, 0.00, 0.00, 1484601167806
38, 65823.60, -56331.78, 18676.58, -59734.81, 14352.97, -55287.95, 6953.05, 162105.17, 0.00, 0.00, 0.00, 1484601167812
39, 65846.60, -56740.08, 18699.78, -59745.09, 14373.71, -55403.34, 6971.42, 162101.13, 0.00, 0.00, 0.00, 1484601167815
40, 65867.03, -56799.69, 18714.85, -59751.93, 14390.75, -55558.12, 6987.45, 162093.23, 0.00, 0.00, 0.00, 1484601167818
41, 65837.42, -56525.46, 18685.92, -59750.97, 14363.70, -55516.79, 6961.09, 162089.48, 0.00, 0.00, 0.00, 1484601167823
42, 65822.71, -56064.41, 18670.37, -59739.44, 14344.37, -55303.82, 6941.80, 162088.34, 0.00, 0.00, 0.00, 1484601167827
43, 65848.69, -55907.23, 18702.55, -59735.62, 14372.22, -55363.73, 6969.07, 162082.80, 0.01, -0.02, 1.04, 1484601167831
44, 65866.77, -55959.20, 18726.18, -59746.46, 14394.37, -55479.02, 6993.91, 162076.83, 0.00, 0.00, 0.00, 1484601167835
45, 65848.21, -55740.62, 18695.31, -59747.20, 14375.23, -55472.67, 6981.21, 162074.03, 0.00, 0.00, 0.00, 1484601167841
46, 65821.62, -55029.81, 18663.86, -59742.28, 14349.66, -55282.03, 6950.19, 162071.11, 0.00, 0.00, 0.00, 1484601167843
47, 65839.88, -54864.05, 18684.69, -59740.85, 14367.14, -55253.67, 6963.98, 162066.14, 0.00, 0.00, 0.00, 1484601167846
48, 65860.64, -55410.80, 18703.92, -59751.38, 14389.07, -55422.47, 6985.72, 162060.80, 0.00, 0.00, 0.00, 1484601167851
49, 65845.64, -55786.87, 18687.29, -59755.46, 14376.84, -55441.58, 6974.35, 162057.55, 0.00, 0.00, 0.00, 1484601167855
50, 65813.91, -55915.32, 18660.60, -59749.81, 14348.23, -55204.98, 6945.49, 162055.08, 0.00, 0.00, 0.00, 1484601167859
51, 65828.88, -56394.54, 18678.37, -59744.64, 14359.77, -55121.52, 6954.83, 162050.44, 0.00, 0.00, 0.00, 1484601167864
52, 65861.02, -56614.39, 18703.94, -59754.75, 14385.83, -55306.20, 6980.27, 162043.91, 0.00, 0.00, 0.00, 1484601167869
53, 65849.84, -56535.32, 18696.29, -59764.14, 14379.30, -55361.07, 6973.10, 162037.98, 0.01, -0.02, 1.04, 1484601167871
54, 65817.55, -56101.04, 18670.39, -59754.10, 14349.04, -55215.33, 6944.04, 162034.83, 0.00, 0.00, 0.00, 1484601167874
55, 65828.10, -55750.75, 18682.91, -59744.24, 14351.07, -55094.19, 6944.75, 162032.66, 0.00, 0.00, 0.00, 1484601167880
56, 65859.50, -55746.93, 18705.86, -59752.78, 14380.29, -55243.41, 6973.12, 162027.97, 0.00, 0.00, 0.00, 1484601167883
57, 65861.11, -55722.90, 18700.63, -59756.92, 14383.30, -55265.85, 6979.40, 162023.59, 0.00, 0.00, 0.00, 1484601167887
58, 65830.22, -55246.78, 18666.08, -59745.00, 14355.43, -55191.80, 6952.31, 162022.52, 0.00, 0.00, 0.00, 1484601167891
59, 65831.05, -54607.16, 18669.32, -59731.44, 14358.33, -55008.40, 6953.69, 162017.48, 0.00, 0.00, 0.00, 1484601167894
60, 65868.71, -54915.15, 18705.57, -59734.45, 14391.13, -55139.38, 6984.76, 162011.66, 0.00, 0.00, 0.00, 1484601167899
61, 65880.80, -55448.35, 18714.20, -59746.57, 14398.34, -55271.88, 6991.69, 162005.55, 0.00, 0.00, 0.00, 1484601167902
62, 65850.31, -55638.12, 18687.42, -59743.68, 14369.13, -55148.77, 6965.54, 162001.84, 0.00, 0.00, 0.00, 1484601167908
63, 65841.29, -55925.74, 18678.48, -59732.04, 14356.75, -54910.50, 6952.78, 161999.27, 0.01, -0.02, 1.04, 1484601167911
64, 65871.21, -56366.18, 18706.55, -59733.16, 14381.74, -55013.30, 6977.97, 161994.69, 0.00, 0.00, 0.00, 1484601167915
65, 65890.28, -56440.41, 18722.42, -59745.41, 14397.29, -55155.68, 6994.13, 161989.02, 0.00, 0.00, 0.00, 1484601167919
66, 65865.88, -56174.11, 18701.88, -59742.43, 14375.01, -55123.71, 6968.67, 161984.81, 0.00, 0.00, 0.00, 1484601167923
67, 65847.37, -55710.98, 18690.77, -59733.47, 14354.85, -54916.04, 6947.39, 161983.00, 0.00, 0.00, 0.00, 1484601167926
68, 65873.98, -55548.82, 18703.80, -59738.37, 14369.65, -54969.46, 6962.66, 161975.89, 0.00, 0.00, 0.00, 1484601167931
69, 65891.55, -55604.03, 18717.86, -59755.20, 14391.46, -55081.36, 6984.16, 161970.17, 0.00, 0.00, 0.00, 1484601167935
70, 65871.41, -55403.76, 18697.30, -59754.44, 14376.22, -55090.95, 6969.56, 161966.41, 0.00, 0.00, 0.00, 1484601167939
71, 65846.98, -54716.15, 18676.29, -59741.65, 14353.75, -54895.91, 6947.55, 161965.23, 0.00, 0.00, 0.00, 1484601167943
72, 65866.37, -54479.00, 18695.02, -59735.95, 14371.23, -54859.36, 6964.16, 161960.48, 0.00, 0.00, 0.00, 1484601167947
73, 65894.73, -55014.48, 18722.60, -59745.61, 14395.48, -55030.89, 6991.47, 161954.09, 0.00, -0.02, 1.04, 1484601167951
74, 65886.55, -55406.11, 18707.87, -59751.89, 14379.86, -55049.15, 6977.05, 161950.36, 0.00, 0.00, 0.00, 1484601167955
75, 65853.40, -55558.14, 18675.62, -59743.48, 14350.74, -54819.42, 6949.60, 161949.09, 0.00, 0.00, 0.00, 1484601167959
76, 65858.50, -56018.36, 18686.66, -59741.79, 14360.17, -54728.00, 6957.45, 161945.11, 0.00, 0.00, 0.00, 1484601167963
77, 65888.63, -56205.00, 18712.19, -59757.68, 14387.95, -54924.14, 6982.26, 161938.83, 0.00, 0.00, 0.00, 1484601167967
78, 65890.57, -56134.86, 18709.73, -59762.44, 14386.32, -54974.05, 6979.71, 161931.86, 0.00, 0.00, 0.00, 1484601167971
79, 65861.31, -55709.46, 18680.31, -59755.53, 14356.64, -54832.05, 6948.35, 161931.14, 0.00, 0.00, 0.00, 1484601167975
80, 65869.29, -55353.64, 18693.12, -59754.68, 14354.76, -54702.63, 6950.21, 161928.61, 0.00, 0.00, 0.00, 1484601167978
81, 65898.62, -55347.70, 18718.65, -59762.73, 14381.09, -54855.96, 6979.80, 161921.19, 0.00, 0.00, 0.00, 1484601167982
82, 65896.27, -55334.69, 18713.48, -59773.82, 14380.20, -54878.02, 6977.28, 161916.55, 0.00, 0.00, 0.00, 1484601167986
83, 65865.85, -54868.21, 18681.54, -59770.29, 14352.17, -54806.03, 6949.25, 161914.27, 0.00, -0.02, 1.05, 1484601167990
84, 65872.40, -54224.04, 18675.44, -59767.58, 14354.20, -54619.82, 6948.49, 161911.72, 0.00, 0.00, 0.00, 1484601167996
85, 65911.70, -54526.27, 18716.43, -59773.01, 14389.32, -54740.56, 6981.48, 161907.19, 0.00, 0.00, 0.00, 1484601168000
86, 65899.31, -55073.22, 18699.89, -59775.04, 14373.45, -54873.64, 6970.59, 161899.05, 0.00, 0.00, 0.00, 1484601168003
87, 65863.99, -55281.72, 18660.11, -59767.56, 14339.47, -54763.09, 6943.86, 161894.48, 0.00, 0.00, 0.00, 1484601168006
88, 65854.41, -55584.05, 18649.04, -59759.42, 14326.93, -54522.39, 6936.15, 161894.11, 0.00, 0.00, 0.00, 1484601168010
89, 65868.66, -55976.23, 18662.88, -59766.35, 14341.93, -54621.40, 6959.39, 161887.63, 0.00, 0.00, 0.00, 1484601168014
90, 65880.29, -56044.16, 18672.42, -59779.65, 14351.18, -54765.48, 6974.50, 161881.41, 0.00, 0.00, 0.00, 1484601168019
91, 65855.23, -55790.27, 18641.42, -59783.00, 14325.63, -54747.09, 6947.06, 161878.50, 0.00, 0.00, 0.00, 1484601168023
92, 65828.97, -55328.66, 18610.11, -59773.28, 14303.01, -54539.02, 6920.86, 161876.22, 0.00, 0.00, 0.00, 1484601168027
93, 65849.91, -55154.13, 18635.83, -59771.18, 14315.15, -54579.18, 6939.41, 161870.92, 0.01, -0.02, 1.04, 1484601168031
94, 65886.66, -55207.13, 18665.14, -59781.32, 14326.31, -54681.26, 6955.35, 161865.31, 0.00, 0.00, 0.00, 1484601168035
95, 65876.96, -55016.22, 18658.36, -59787.09, 14311.40, -54705.22, 6938.29, 161861.84, 0.00, 0.00, 0.00, 1484601168038
96, 65847.77, -54339.95, 18623.70, -59779.05, 14289.00, -54513.87, 6918.83, 161860.06, 0.00, 0.00, 0.00, 1484601168042
97, 65856.71, -54078.03, 18619.31, -59776.45, 14301.94, -54471.78, 6930.40, 161855.64, 0.00, 0.00, 0.00, 1484601168046
98, 65888.60, -54606.88, 18653.87, -59785.41, 14336.70, -54642.48, 6958.01, 161849.52, 0.00, 0.00, 0.00, 1484601168051
99, 65883.30, -55007.80, 18657.47, -59789.53, 14332.25, -54664.45, 6950.10, 161843.45, 0.00, 0.00, 0.00, 1484601168056
100, 65862.45, -55156.64, 18636.21, -59782.73, 14311.37, -54435.70, 6929.11, 161840.61, 0.00, 0.00, 0.00, 1484601168059
101, 65876.87, -55615.77, 18649.65, -59777.66, 14325.14, -54333.58, 6936.86, 161835.86, 0.00, 0.00, 0.00, 1484601168063
102, 65914.87, -55811.93, 18683.76, -59787.05, 14360.30, -54526.99, 6966.35, 161830.41, 0.00, 0.00, 0.00, 1484601168069
103, 65914.64, -55750.48, 18683.08, -59796.82, 14361.69, -54595.83, 6964.38, 161826.22, 0.01, -0.02, 1.04, 1484601168071
104, 65882.70, -55330.54, 18657.96, -59793.20, 14334.67, -54455.06, 6928.57, 161823.20, 0.00, 0.00, 0.00, 1484601168075
105, 65887.55, -54965.73, 18661.43, -59787.29, 14338.33, -54317.98, 6932.86, 161818.56, 0.00, 0.00, 0.00, 1484601168078
106, 65930.02, -54948.99, 18697.64, -59793.53, 14370.85, -54472.05, 6966.46, 161812.30, 0.00, 0.00, 0.00, 1484601168082
107, 65930.05, -54940.54, 18703.96, -59800.70, 14376.93, -54502.54, 6973.39, 161810.23, 0.00, 0.00, 0.00, 1484601168087
108, 65898.44, -54481.55, 18677.86, -59794.54, 14350.20, -54434.90, 6947.23, 161808.31, 0.00, 0.00, 0.00, 1484601168090
109, 65897.32, -53831.13, 18684.02, -59787.92, 14349.84, -54243.26, 6942.14, 161804.41, 0.00, 0.00, 0.00, 1484601168095
110, 65938.23, -54125.38, 18730.83, -59788.68, 14379.28, -54356.96, 6970.32, 161797.48, 0.00, 0.00, 0.00, 1484601168100
111, 65962.14, -54669.26, 18735.75, -59787.11, 14396.27, -54484.97, 6984.50, 161792.27, 0.00, 0.00, 0.00, 1484601168104
112, 65930.80, -54891.17, 18689.54, -59779.89, 14370.85, -54380.83, 6960.71, 161788.02, 0.00, 0.00, 0.00, 1484601168107
113, 65922.13, -55204.47, 18676.78, -59771.71, 14357.33, -54138.20, 6945.00, 161784.61, 0.01, -0.02, 1.04, 1484601168111
114, 65946.31, -55542.05, 18706.78, -59781.57, 14379.46, -54229.93, 6967.19, 161780.16, 0.00, 0.00, 0.00, 1484601168115
115, 65965.00, -55602.60, 18732.39, -59791.27, 14400.00, -54382.46, 6985.61, 161774.75, 0.00, 0.00, 0.00, 1484601168118
116, 65940.17, -55359.19, 18705.64, -59791.38, 14377.63, -54357.54, 6964.38, 161770.20, 0.00, 0.00, 0.00, 1484601168123
117, 65922.96, -54894.52, 18690.39, -59785.37, 14357.35, -54151.97, 6941.96, 161767.95, 0.00, 0.00, 0.00, 1484601168127
118, 65950.34, -54709.38, 18713.53, -59782.24, 14379.86, -54185.68, 6964.38, 161764.00, 0.00, 0.00, 0.00, 1484601168131
119, 65972.78, -54761.48, 18734.58, -59791.43, 14408.60, -54291.65, 6987.74, 161758.45, 0.00, 0.00, 0.00, 1484601168134
120, 65955.91, -54577.66, 18715.76, -59795.07, 14391.82, -54298.78, 6973.10, 161753.42, 0.00, 0.00, 0.00, 1484601168138
121, 65924.81, -53879.64, 18684.78, -59788.03, 14361.29, -54120.23, 6946.61, 161753.00, 0.00, 0.00, 0.00, 1484601168142
122, 65939.19, -53669.04, 18701.88, -59782.73, 14376.22, -54062.90, 6959.06, 161747.52, 0.00, 0.00, 0.00, 1484601168147
123, 65973.77, -54210.40, 18734.18, -59791.27, 14400.87, -54249.18, 6987.78, 161743.05, 0.01, -0.02, 1.04, 1484601168151
124, 65961.07, -54621.78, 18726.43, -59796.17, 14388.47, -54283.69, 6978.17, 161738.41, 0.00, 0.00, 0.00, 1484601168155
125, 65927.85, -54762.04, 18689.92, -59784.97, 14364.08, -54053.60, 6950.43, 161734.48, 0.00, 0.00, 0.00, 1484601168159
126, 65937.69, -55227.20, 18695.54, -59777.21, 14371.72, -53941.60, 6956.87, 161730.42, 0.00, 0.00, 0.00, 1484601168163
127, 65968.63, -55454.36, 18726.38, -59790.16, 14399.31, -54132.86, 6986.02, 161724.20, 0.00, 0.00, 0.00, 1484601168166
128, 65967.35, -55402.30, 18732.35, -59802.89, 14397.27, -54198.13, 6982.62, 161718.67, 0.00, 0.00, 0.00, 1484601168170
129, 65935.32, -54989.94, 18708.39, -59794.65, 14370.16, -54072.89, 6951.35, 161718.05, 0.00, 0.00, 0.00, 1484601168175
130, 65936.95, -54618.30, 18701.99, -59783.47, 14371.03, -53931.63, 6956.15, 161713.38, 0.00, 0.00, 0.00, 1484601168180
131, 65969.56, -54600.66, 18722.00, -59792.08, 14398.21, -54070.41, 6978.75, 161706.89, 0.00, 0.00, 0.00, 1484601168184
132, 65970.01, -54602.94, 18722.85, -59803.23, 14404.13, -54081.47, 6984.94, 161700.09, 0.00, 0.00, 0.00, 1484601168188
133, 65940.08, -54185.34, 18697.10, -59802.54, 14375.72, -54036.84, 6961.79, 161698.34, 0.01, -0.02, 1.04, 1484601168190
134, 65943.32, -53504.17, 18709.79, -59789.77, 14374.72, -53846.67, 6957.45, 161697.44, 0.00, 0.00, 0.00, 1484601168194
135, 65962.01, -53732.45, 18726.22, -59794.65, 14393.83, -53957.82, 6978.19, 161691.50, 0.00, 0.00, 0.00, 1484601168198
136, 65957.18, -54289.73, 18721.82, -59808.39, 14398.86, -54086.66, 6986.10, 161686.34, 0.00, 0.00, 0.00, 1484601168203
137, 65930.96, -54567.65, 18703.47, -59811.50, 14374.29, -53995.62, 6961.05, 161684.48, 0.00, 0.00, 0.00, 1484601168207
138, 65913.86, -54907.06, 18687.06, -59806.29, 14355.92, -53761.51, 6942.83, 161679.75, 0.00, 0.00, 0.00, 1484601168211
139, 65938.25, -55025.93, 18699.04, -59812.75, 14375.48, -53846.85, 6962.72, 161674.16, 0.00, 0.00, 0.00, 1484601168215
140, 65950.83, -55075.90, 18711.63, -59823.95, 14396.53, -53979.10, 6978.91, 161667.91, 0.00, 0.00, 0.00, 1484601168218
141, 65925.41, -54843.89, 18687.09, -59825.20, 14373.83, -53982.88, 6954.68, 161664.03, 0.00, 0.00, 0.00, 1484601168222
142, 65902.09, -54377.07, 18667.13, -59817.20, 14351.36, -53775.10, 6936.37, 161661.47, 0.00, 0.00, 0.00, 1484601168227
143, 65922.63, -54182.82, 18695.85, -59818.16, 14370.70, -53799.37, 6954.54, 161659.44, 0.01, -0.03, 1.05, 1484601168231
144, 65950.07, -54232.28, 18723.34, -59827.66, 14398.26, -53909.39, 6980.43, 161654.03, 0.00, 0.00, 0.00, 1484601168235
145, 65936.15, -54019.79, 18713.08, -59831.21, 14384.44, -53914.51, 6963.26, 161648.84, 0.00, 0.00, 0.00, 1484601168239
146, 65910.73, -53288.17, 18685.79, -59820.08, 14358.69, -53732.92, 6937.51, 161647.72, 0.00, 0.00, 0.00, 1484601168242
147, 65921.22, -53283.61, 18692.72, -59819.55, 14374.94, -53661.78, 6953.45, 161642.30, 0.00, 0.00, 0.00, 1484601168247
148, 65947.57, -53846.80, 18721.64, -59828.89, 14395.77, -53857.04, 6978.91, 161636.20, 0.00, 0.00, 0.00, 1484601168251
149, 65940.17, -54440.22, 18725.15, -59833.61, 14386.99, -53903.15, 6975.73, 161631.11, 0.00, 0.00, 0.00, 1484601168255
150, 65908.19, -54623.35, 18694.80, -59825.34, 14358.00, -53698.61, 6948.53, 161627.50, 0.00, 0.00, 0.00, 1484601168258
151, 65914.58, -54356.60, 18695.09, -59820.84, 14367.90, -53599.95, 6955.75, 161623.14, 0.00, 0.00, 0.00, 1484601168262
152, 65946.74, -54363.78, 18724.73, -59824.31, 14402.08, -53748.97, 6986.13, 161617.53, 0.00, 0.00, 0.00, 1484601168267
153, 65947.59, -54317.75, 18731.21, -59829.61, 14402.93, -53771.63, 6986.26, 161611.89, 0.01, -0.02, 1.04, 1484601168271
154, 65913.37, -53864.51, 18693.57, -59829.00, 14373.04, -53678.34, 6956.91, 161608.69, 0.00, 0.00, 0.00, 1484601168275
155, 65906.35, -53218.92, 18687.24, -59825.49, 14369.29, -53518.10, 6949.43, 161604.97, 0.00, 0.00, 0.00, 1484601168279
156, 65929.89, -53448.16, 18722.92, -59828.78, 14394.99, -53663.27, 6974.24, 161599.89, 0.00, 0.00, 0.00, 1484601168282
157, 65934.72, -53971.44, 18723.56, -59838.19, 14402.37, -53778.50, 6984.67, 161595.78, 0.00, 0.00, 0.00, 1484601168287
158, 65908.66, -54152.44, 18687.82, -59835.46, 14372.77, -53636.41, 6954.99, 161593.30, 0.00, 0.00, 0.00, 1484601168290
159, 65894.37, -54492.28, 18681.74, -59830.52, 14362.69, -53410.52, 6946.21, 161591.06, 0.00, 0.00, 0.00, 1484601168295
160, 65915.02, -54866.47, 18716.26, -59833.18, 14388.80, -53533.99, 6973.32, 161586.77, 0.00, 0.00, 0.00, 1484601168299
161, 65931.79, -54908.49, 18735.77, -59845.16, 14405.43, -53676.57, 6990.87, 161580.16, 0.00, 0.00, 0.00, 1484601168301
162, 65905.59, -54610.92, 18710.24, -59845.32, 14386.50, -53627.98, 6966.03, 161577.22, 0.00, 0.00, 0.00, 1484601168307
163, 65885.30, -54151.59, 18686.86, -59833.54, 14369.11, -53414.59, 6951.82, 161573.95, 0.01, -0.02, 1.04, 1484601168311
164, 65903.05, -54011.29, 18701.26, -59841.47, 14385.69, -53486.52, 6973.79, 161567.77, 0.00, 0.00, 0.00, 1484601168315
165, 65925.10, -54057.78, 18723.54, -59856.72, 14405.41, -53574.13, 6992.99, 161562.38, 0.00, 0.00, 0.00, 1484601168319
166, 65905.86, -53809.32, 18700.21, -59856.67, 14385.54, -53579.50, 6967.57, 161558.83, 0.00, 0.00, 0.00, 1484601168324
167, 65871.57, -53080.41, 18680.49, -59850.97, 14363.92, -53372.07, 6946.32, 161556.06, 0.00, 0.00, 0.00, 1484601168326
168, 65890.39, -53003.23, 18706.31, -59846.19, 14384.64, -53353.63, 6967.44, 161552.13, 0.00, 0.00, 0.00, 1484601168330
169, 65914.69, -53565.64, 18726.51, -59858.11, 14407.73, -53549.84, 6990.26, 161548.64, 0.00, 0.00, 0.00, 1484601168335
170, 65900.61, -53932.43, 18707.63, -59861.48, 14395.13, -53558.82, 6975.78, 161541.77, 0.00, 0.00, 0.00, 1484601168338
171, 65873.36, -54143.95, 18686.46, -59853.25, 14369.67, -53300.13, 6952.35, 161538.06, 0.00, 0.00, 0.00, 1484601168342
172, 65878.26, -54533.76, 18700.68, -59852.98, 14378.72, -53237.85, 6963.89, 161533.69, 0.00, 0.00, 0.00, 1484601168347
173, 65904.02, -54638.50, 18724.59, -59867.63, 14407.91, -53433.05, 6989.06, 161528.98, 0.01, -0.03, 1.04, 1484601168351
174, 65900.34, -54539.51, 18721.46, -59878.51, 14396.45, -53477.53, 6977.43, 161522.47, 0.00, 0.00, 0.00, 1484601168354
175, 65870.97, -54093.28, 18689.39, -59869.52, 14363.21, -53314.86, 6948.13, 161520.78, 0.00, 0.00, 0.00, 1484601168358
176, 65872.20, -53752.30, 18687.73, -59868.30, 14371.08, -53202.47, 6955.84, 161517.48, 0.00, 0.00, 0.00, 1484601168363
177, 65887.87, -53752.70, 18711.56, -59877.35, 14398.95, -53352.25, 6982.71, 161514.30, 0.00, 0.00, 0.00, 1484601168366
178, 65891.66, -53706.86, 18714.29, -59887.68, 14397.90, -53383.03, 6981.88, 161510.97, 0.00, 0.00, 0.00, 1484601168371
179, 65860.40, -53108.82, 18682.06, -59879.74, 14369.49, -53284.97, 6955.15, 161507.02, 0.00, 0.00, 0.00, 1484601168375
180, 65852.20, -52653.58, 18686.88, -59865.10, 14365.26, -53096.48, 6952.93, 161502.19, 0.00, 0.00, 0.00, 1484601168379
181, 65868.95, -53093.93, 18711.83, -59868.48, 14399.42, -53237.43, 6982.37, 161495.22, 0.00, 0.00, 0.00, 1484601168383
182, 65871.44, -53659.56, 18714.56, -59877.39, 14410.24, -53383.25, 6990.93, 161490.88, 0.00, 0.00, 0.00, 1484601168386
183, 65844.10, -54100.34, 18690.44, -59873.88, 14380.35, -53237.27, 6964.00, 161490.05, 0.01, -0.02, 1.04, 1484601168392
184, 65809.97, -53970.27, 18677.05, -59870.73, 14364.77, -53026.85, 6951.48, 161484.70, 0.00, 0.00, 0.00, 1484601168396
185, 65804.85, -53876.13, 18701.79, -59880.93, 14388.76, -53140.20, 6972.40, 161477.31, 0.00, 0.00, 0.00, 1484601168400
186, 65809.61, -53902.64, 18719.43, -59894.87, 14398.39, -53239.11, 6988.76, 161471.86, 0.00, 0.00, 0.00, 1484601168403
187, 65786.75, -53610.25, 18693.99, -59894.00, 14371.75, -53205.42, 6963.33, 161469.28, 0.00, 0.00, 0.00, 1484601168407
188, 65749.58, -52961.54, 18677.54, -59877.35, 14358.04, -52989.26, 6948.55, 161468.33, 0.00, 0.00, 0.00, 1484601168411
189, 65740.70, -52725.04, 18694.10, -59876.23, 14380.58, -53031.41, 6971.58, 161463.09, 0.00, 0.00, 0.00, 1484601168414
190, 65743.48, -53242.99, 18715.79, -59892.41, 14404.98, -53233.52, 6999.36, 161455.63, 0.00, 0.00, 0.00, 1484601168419
191, 65722.17, -53548.61, 18707.05, -59903.12, 14395.06, -53192.52, 6991.49, 161451.14, 0.00, 0.00, 0.00, 1484601168422
192, 65682.03, -53709.25, 18672.45, -59890.69, 14358.04, -52918.13, 6952.55, 161448.98, 0.00, 0.00, 0.00, 1484601168426
193, 65668.77, -54229.27, 18682.77, -59884.03, 14363.99, -52906.51, 6951.30, 161445.22, 0.00, 0.00, 0.00, 1484601168431
194, 65677.07, -54400.21, 18714.58, -59895.99, 14396.87, -53111.30, 6977.48, 161440.50, 0.01, -0.02, 1.04, 1484601168435
195, 65666.59, -54242.70, 18712.07, -59894.83, 14389.63, -53141.20, 6967.69, 161437.39, 0.00, 0.00, 0.00, 1484601168438
196, 65628.66, -53776.26, 18687.82, -59890.16, 14359.32, -52940.04, 6938.36, 161433.56, 0.00, 0.00, 0.00, 1484601168442
197, 65606.81, -53488.32, 18704.30, -59880.79, 14375.88, -52878.95, 6954.92, 161427.73, 0.00, 0.00, 0.00, 1484601168446
198, 65614.13, -53514.19, 18734.99, -59883.99, 14407.46, -53020.68, 6985.32, 161424.09, 0.00, 0.00, 0.00, 1484601168450
199, 65607.58, -53426.30, 18727.27, -59883.34, 14399.26, -53049.76, 6979.00, 161419.44, 0.00, 0.00, 0.00, 1484601168455
200, 65568.93, -52822.02, 18699.74, -59871.27, 14373.09, -52913.93, 6953.72, 161415.78, 0.00, 0.00, 0.00, 1484601168459
201, 65541.50, -52355.43, 18706.24, -59859.94, 14379.28, -52770.23, 6957.92, 161411.19, 0.00, 0.00, 0.00, 1484601168462
202, 65543.67, -52813.24, 18734.74, -59870.75, 14408.87, -52937.56, 6989.17, 161406.30, 0.00, 0.00, 0.00, 1484601168466
203, 65536.79, -53308.66, 18737.09, -59881.08, 14405.16, -53024.55, 6983.76, 161399.69, 0.00, 0.00, 0.00, 1484601168469
204, 65501.56, -53503.05, 18699.58, -59872.54, 14372.35, -52846.18, 6949.56, 161397.73, 0.01, -0.02, 1.04, 1484601168474
205, 65471.59, -53890.64, 18696.76, -59859.85, 14375.75, -52654.07, 6949.29, 161393.42, 0.00, 0.00, 0.00, 1484601168479
206, 65473.82, -54069.63, 18732.66, -59863.00, 14401.74, -52815.67, 6973.61, 161389.67, 0.00, 0.00, 0.00, 1484601168483
207, 65476.66, -54073.43, 18739.21, -59874.91, 14405.79, -52946.74, 6983.74, 161384.86, 0.00, 0.00, 0.00, 1484601168487
208, 65448.07, -53729.55, 18700.05, -59872.43, 14373.24, -52861.98, 6954.92, 161381.00, 0.00, 0.00, 0.00, 1484601168491
209, 65414.01, -53288.28, 18687.53, -59863.25, 14361.06, -52661.07, 6939.97, 161378.38, 0.00, 0.00, 0.00, 1484601168494
210, 65410.50, -53183.98, 18718.40, -59869.86, 14390.52, -52766.54, 6963.04, 161374.66, 0.00, 0.00, 0.00, 1484601168498
211, 65416.42, -53217.98, 18727.16, -59880.57, 14404.20, -52836.10, 6979.09, 161370.33, 0.00, 0.00, 0.00, 1484601168503
212, 65391.95, -52861.52, 18697.99, -59879.58, 14375.99, -52808.16, 6953.96, 161366.09, 0.00, 0.00, 0.00, 1484601168507
213, 65350.55, -52154.11, 18680.04, -59867.22, 14356.79, -52591.35, 6932.97, 161361.00, 0.00, 0.00, 0.00, 1484601168511
214, 65337.90, -52343.02, 18703.25, -59867.94, 14376.71, -52615.16, 6953.20, 161354.94, 0.01, -0.02, 1.04, 1484601168515
215, 65343.98, -52915.27, 18727.65, -59879.07, 14402.59, -52830.02, 6976.74, 161352.00, 0.00, 0.00, 0.00, 1484601168517
216, 65325.03, -53383.47, 18712.86, -59873.04, 14388.47, -52796.43, 6959.84, 161349.27, 0.00, 0.00, 0.00, 1484601168522
217, 65288.08, -53571.50, 18694.57, -59854.80, 14367.66, -52539.32, 6941.71, 161346.31, 0.00, 0.00, 0.00, 1484601168525
218, 65274.13, -53413.87, 18710.44, -59849.68, 14388.33, -52533.04, 6962.39, 161343.09, 0.00, 0.00, 0.00, 1484601168530
219, 65280.46, -53453.55, 18729.04, -59866.17, 14407.22, -52688.22, 6980.72, 161337.67, 0.00, 0.00, 0.00, 1484601168534
220, 65266.38, -53313.38, 18705.97, -59873.91, 14386.77, -52712.54, 6962.90, 161331.02, 0.00, 0.00, 0.00, 1484601168539
221, 65226.66, -52845.56, 18689.92, -59855.42, 14363.66, -52536.52, 6940.62, 161327.69, 0.00, 0.00, 0.00, 1484601168543
222, 65196.66, -52545.04, 18702.98, -59846.14, 14373.36, -52465.24, 6953.38, 161324.00, 0.00, 0.00, 0.00, 1484601168546
223, 65205.80, -52563.63, 18727.90, -59861.03, 14399.87, -52621.50, 6979.42, 161318.38, 0.00, 0.00, 0.00, 1484601168551
224, 65202.79, -52299.28, 18727.39, -59860.47, 14398.75, -52641.20, 6974.86, 161313.70, 0.01, -0.02, 1.04, 1484601168554
225, 65169.04, -51785.95, 18701.44, -59846.53, 14367.66, -52484.40, 6945.07, 161311.81, 0.00, 0.00, 0.00, 1484601168558
226, 65139.30, -51912.06, 18687.18, -59839.84, 14367.59, -52323.73, 6943.37, 161308.38, 0.00, 0.00, 0.00, 1484601168562
227, 65138.03, -52431.51, 18709.15, -59848.63, 14394.92, -52501.09, 6970.86, 161300.86, 0.00, 0.00, 0.00, 1484601168568
228, 65133.00, -53042.01, 18717.86, -59850.88, 14402.30, -52648.82, 6981.08, 161294.70, 0.00, 0.00, 0.00, 1484601168571
229, 65102.07, -53376.59, 18692.25, -59836.09, 14372.33, -52466.14, 6948.53, 161293.00, 0.00, 0.00, 0.00, 1484601168573
230, 65071.98, -53082.98, 18692.45, -59826.07, 14367.86, -52282.38, 6945.27, 161290.42, 0.00, 0.00, 0.00, 1484601168578
231, 65070.87, -53021.71, 18716.61, -59833.27, 14402.79, -52425.61, 6977.23, 161285.11, 0.00, 0.00, 0.00, 1484601168582
232, 65073.10, -53030.34, 18721.57, -59840.16, 14405.61, -52504.25, 6985.90, 161279.50, 0.00, 0.00, 0.00, 1484601168587
233, 65046.41, -52651.59, 18697.52, -59824.98, 14374.38, -52443.83, 6953.72, 161277.38, 0.00, 0.00, 0.00, 1484601168590
234, 65009.78, -51937.81, 18689.07, -59808.24, 14367.54, -52232.14, 6945.89, 161275.41, 0.01, -0.03, 1.05, 1484601168595
235, 65000.91, -52070.00, 18713.39, -59811.48, 14392.85, -52311.48, 6970.70, 161267.81, 0.00, 0.00, 0.00, 1484601168600
236, 65003.63, -52642.38, 18728.55, -59819.86, 14411.64, -52482.00, 6989.12, 161263.00, 0.00, 0.00, 0.00, 1484601168604
237, 64980.18, -53122.25, 18705.79, -59814.07, 14389.85, -52399.08, 6966.64, 161260.20, 0.00, 0.00, 0.00, 1484601168607
238, 64945.67, -53178.42, 18689.86, -59800.13, 14370.16, -52164.72, 6946.12, 161258.58, 0.00, 0.00, 0.00, 1484601168611
239, 64935.41, -53027.68, 18720.61, -59798.76, 14389.05, -52212.45, 6963.02, 161254.42, 0.00, 0.00, 0.00, 1484601168614
240, 64939.73, -53067.38, 18735.48, -59805.84, 14410.71, -52358.22, 6988.74, 161246.84, 0.00, 0.00, 0.00, 1484601168618
241, 64924.71, -52865.67, 18702.08, -59796.41, 14390.16, -52356.30, 6968.33, 161243.53, 0.00, 0.00, 0.00, 1484601168622
242, 64883.87, -52308.24, 18684.81, -59763.06, 14366.43, -52155.78, 6945.92, 161240.92, 0.00, 0.00, 0.00, 1484601168627
243, 64865.65, -51826.03, 18708.63, -59744.63, 14386.95, -52123.55, 6962.68, 161236.05, 0.00, 0.00, 0.00, 1484601168631
244, 64872.27, -52219.24, 18735.05, -59747.69, 14415.40, -52314.77, 6987.45, 161231.39, 0.01, -0.02, 1.04, 1484601168634
245, 64857.94, -52619.13, 18719.56, -59736.20, 14399.57, -52338.84, 6971.37, 161226.75, 0.00, 0.00, 0.00, 1484601168638
246, 64817.42, -52735.77, 18681.95, -59699.09, 14365.87, -52094.07, 6940.71, 161223.66, 0.00, 0.00, 0.00, 1484601168645
247, 64794.98, -53227.91, 18687.31, -59675.27, 14366.99, -51992.17, 6943.57, 161219.73, 0.00, 0.00, 0.00, 1484601168647
248, 64797.86, -53529.88, 18708.14, -59675.63, 14389.65, -52189.46, 6965.85, 161211.69, 0.00, 0.00, 0.00, 1484601168651
249, 64792.59, -53454.75, 18700.23, -59671.42, 14390.32, -52265.77, 6964.16, 161206.98, 0.00, 0.00, 0.00, 1484601168655
250, 64760.63, -53019.74, 18677.52, -59641.54, 14363.16, -52107.70, 6937.44, 161206.77, 0.00, 0.00, 0.00, 1484601168658
251, 64732.62, -52653.76, 18682.84, -59613.71, 14360.79, -51972.43, 6939.41, 161202.55, 0.00, 0.00, 0.00, 1484601168662
252, 64736.37, -52636.88, 18707.69, -59615.57, 14387.68, -52123.71, 6963.33, 161198.73, 0.00, 0.00, 0.00, 1484601168666
253, 64734.36, -52614.98, 18718.69, -59613.87, 14391.06, -52150.37, 6965.45, 161192.19, 0.00, 0.00, 0.00, 1484601168670
254, 64701.64, -52151.78, 18690.57, -59584.86, 14366.00, -52077.02, 6938.29, 161188.86, 0.01, -0.02, 1.04, 1484601168677
255, 64667.13, -51498.57, 18674.57, -59551.91, 14357.84, -51886.40, 6935.59, 161185.08, 0.00, 0.00, 0.00, 1484601168679
0, 64665.47, -51788.68, 18714.60, -59545.63, 14390.99, -52003.95, 6965.43, 161180.28, 0.00, 0.00, 0.00, 1484601168683
1, 64664.87, -52337.97, 18727.77, -59544.89, 14402.32, -52156.16, 6978.48, 161174.47, 0.00, 0.00, 0.00, 1484601168686
2, 64636.30, -52571.82, 18698.82, -59519.81, 14373.49, -52031.30, 6950.23, 161172.92, 0.00, 0.00, 0.00, 1484601168690
3, 64598.64, -52915.23, 18675.48, -59481.99, 14353.91, -51790.46, 6933.49, 161168.00, 0.00, 0.00, 0.00, 1484601168694
4, 64592.63, -53167.22, 18687.87, -59472.94, 14374.23, -51887.65, 6954.59, 161162.20, 0.00, 0.00, 0.00, 1484601168699
5, 64598.39, -53207.50, 18711.74, -59477.52, 14391.62, -52036.80, 6972.00, 161157.02, 0.00, 0.00, 0.00, 1484601168702
6, 64580.07, -52945.85, 18693.86, -59460.93, 14372.13, -52015.21, 6951.93, 161155.73, 0.00, 0.00, 0.00, 1484601168706
7, 64541.42, -52473.04, 18673.72, -59424.39, 14353.62, -51800.23, 6930.11, 161151.92, 0.00, 0.00, 0.00, 1484601168711
8, 64529.75, -52287.21, 18688.61, -59411.16, 14373.67, -51836.29, 6951.12, 161147.31, 0.01, -0.03, 1.04, 1484601168715
9, 64534.51, -52330.13, 18713.42, -59414.45, 14397.05, -51936.80, 6975.60, 161140.11, 0.00, 0.00, 0.00, 1484601168719
10, 64519.98, -52103.03, 18697.93, -59402.11, 14377.18, -51949.99, 6955.39, 161136.98, 0.00, 0.00, 0.00, 1484601168722
11, 64479.46, -51364.78, 18668.18, -59365.56, 14347.65, -51753.99, 6928.62, 161134.66, 0.00, 0.00, 0.00, 1484601168726
12, 64459.16, -51340.10, 18690.68, -59342.98, 14360.62, -51697.32, 6941.69, 161128.83, 0.00, 0.00, 0.00, 1484601168730
13, 64463.90, -51914.92, 18714.29, -59345.33, 14385.85, -51900.35, 6964.20, 161124.25, 0.00, 0.00, 0.00, 1484601168734
14, 64452.62, -52527.31, 18699.94, -59334.87, 14373.98, -51948.07, 6952.91, 161120.44, 0.00, 0.00, 0.00, 1484601168739
15, 64415.63, -52638.65, 18674.01, -59298.30, 14347.76, -51722.76, 6929.29, 161116.64, 0.00, 0.00, 0.00, 1484601168743
16, 64393.94, -52360.19, 18678.93, -59275.30, 14358.78, -51634.79, 6940.86, 161113.14, 0.00, 0.00, 0.00, 1484601168746
17, 64396.74, -52372.26, 18701.39, -59277.09, 14384.75, -51791.94, 6966.35, 161106.88, 0.00, 0.00, 0.00, 1484601168750
18, 64391.89, -52307.46, 18694.17, -59273.88, 14377.60, -51828.38, 6958.17, 161102.39, 0.01, -0.02, 1.04, 1484601168754
19, 64356.41, -51783.83, 18673.21, -59241.53, 14356.79, -51708.21, 6934.76, 161099.44, 0.00, 0.00, 0.00, 1484601168758
20, 64324.63, -51188.29, 18679.49, -59210.02, 14366.18, -51547.30, 6944.55, 161094.06, 0.00, 0.00, 0.00, 1484601168762
21, 64324.63, -51549.87, 18713.08, -59205.81, 14400.36, -51699.16, 6979.67, 161087.94, 0.00, 0.00, 0.00, 1484601168767
22, 64320.74, -52067.83, 18723.14, -59202.68, 14403.44, -51809.51, 6981.72, 161082.72, 0.00, 0.00, 0.00, 1484601168770
23, 64287.62, -52292.30, 18694.44, -59172.82, 14375.57, -51645.92, 6950.70, 161080.97, 0.00, 0.00, 0.00, 1484601168774
24, 64255.81, -52657.49, 18683.55, -59139.11, 14363.92, -51436.88, 6936.71, 161077.44, 0.00, 0.00, 0.00, 1484601168778
25, 64255.41, -52792.96, 18707.43, -59135.70, 14386.01, -51577.95, 6959.68, 161073.23, 0.00, 0.00, 0.00, 1484601168782
26, 64258.45, -52806.69, 18718.69, -59138.42, 14399.11, -51703.32, 6970.64, 161067.77, 0.00, 0.00, 0.00, 1484601168787
27, 64233.17, -52488.60, 18691.73, -59115.38, 14375.95, -51645.36, 6945.25, 161064.94, 0.00, 0.00, 0.00, 1484601168791
28, 64197.58, -52031.11, 18677.01, -59081.00, 14362.11, -51437.20, 6934.43, 161062.16, 0.01, -0.03, 1.04, 1484601168796
29, 64191.95, -51896.70, 18704.27, -59073.27, 14389.25, -51522.36, 6959.64, 161058.80, 0.00, 0.00, 0.00, 1484601168798
30, 64196.24, -51933.47, 18719.74, -59076.35, 14402.21, -51613.73, 6972.09, 161051.94, 0.00, 0.00, 0.00, 1484601168802
31, 64173.73, -51597.35, 18699.25, -59057.29, 14379.84, -51593.88, 6951.48, 161047.23, 0.00, 0.00, 0.00, 1484601168806
32, 64133.90, -50892.33, 18688.38, -59019.29, 14365.47, -51375.97, 6932.15, 161043.95, 0.00, 0.00, 0.00, 1484601168810
33, 64119.91, -51072.66, 18712.10, -59002.93, 14384.33, -51371.77, 6953.09, 161040.02, 0.00, 0.00, 0.00, 1484601168814
34, 64121.99, -51662.70, 18734.36, -59002.86, 14409.70, -51587.64, 6976.16, 161032.67, 0.00, 0.00, 0.00, 1484601168818
35, 64107.39, -52250.78, 18714.47, -58989.70, 14388.91, -51593.95, 6954.54, 161030.67, 0.00, 0.00, 0.00, 1484601168824
36, 64069.06, -52262.40, 18684.18, -58952.14, 14356.28, -51351.03, 6923.32, 161026.63, 0.00, 0.00, 0.00, 1484601168826
37, 64048.95, -52019.21, 18691.15, -58931.36, 14367.39, -51318.20, 6939.50, 161020.73, 0.00, 0.00, 0.00, 1484601168829
38, 64055.36, -52047.02, 18721.62, -58936.00, 14393.18, -51457.43, 6965.27, 161016.03, 0.00, -0.02, 1.04, 1484601168835
39, 64046.98, -51930.10, 18715.70, -58928.61, 14383.88, -51487.93, 6954.01, 161011.88, 0.00, 0.00, 0.00, 1484601168838
40, 64008.69, -51351.21, 18680.27, -58894.81, 14356.66, -51333.30, 6926.00, 161010.09, 0.00, 0.00, 0.00, 1484601168842
41, 63983.79, -50842.37, 18687.15, -58868.93, 14369.58, -51215.76, 6936.60, 161006.41, 0.00, 0.00, 0.00, 1484601168846
42, 63986.31, -51275.93, 18718.94, -58868.26, 14404.31, -51392.27, 6972.31, 161001.27, 0.00, 0.00, 0.00, 1484601168851
43, 63978.56, -51753.18, 18722.00, -58861.39, 14404.29, -51476.69, 6973.23, 160995.88, 0.00, 0.00, 0.00, 1484601168854
44, 63941.32, -51968.63, 18691.91, -58827.04, 14372.42, -51273.43, 6942.99, 160992.91, 0.00, 0.00, 0.00, 1484601168858
45, 63913.56, -52342.02, 18689.37, -58796.75, 14370.14, -51104.33, 6941.67, 160989.22, 0.00, 0.00, 0.00, 1484601168862
46, 63914.66, -52452.79, 18719.74, -58794.99, 14399.17, -51268.78, 6973.50, 160983.31, 0.00, 0.00, 0.00, 1484601168866
47, 63916.35, -52439.56, 18720.86, -58797.29, 14398.99, -51361.09, 6973.07, 160979.67, 0.00, 0.00, 0.00, 1484601168871
48, 63885.93, -52069.77, 18690.44, -58768.97, 14366.27, -51274.63, 6942.92, 160975.83, 0.01, -0.03, 1.04, 1484601168874
49, 63852.88, -51640.29, 18685.90, -58736.23, 14355.70, -51087.66, 6932.46, 160972.31, 0.00, 0.00, 0.00, 1484601168879
50, 63848.74, -51558.70, 18707.94, -58730.30, 14377.98, -51205.48, 6957.36, 160966.16, 0.00, 0.00, 0.00, 1484601168882
51, 63852.07, -51580.80, 18717.89, -58733.72, 14390.52, -51264.13, 6970.08, 160960.97, 0.00, 0.00, 0.00, 1484601168886
52, 63827.71, -51142.60, 18699.80, -58712.58, 14367.92, -51235.88, 6946.50, 160959.27, 0.00, 0.00, 0.00, 1484601168890
53, 63792.01, -50518.76, 18688.18, -58678.22, 14359.01, -51012.16, 6935.39, 160958.44, 0.00, 0.00, 0.00, 1484601168894
54, 63782.36, -50820.58, 18702.69, -58665.53, 14384.22, -51062.71, 6959.01, 160953.55, 0.00, 0.00, 0.00, 1484601168900
55, 63782.62, -51426.22, 18714.69, -58664.72, 14403.26, -51259.10, 6977.32, 160945.72, 0.00, 0.00, 0.00, 1484601168903
56, 63763.56, -51981.82, 18702.35, -58646.59, 14382.56, -51209.88, 6955.97, 160943.80, 0.00, 0.00, 0.00, 1484601168908
57, 63724.78, -51857.63, 18679.35, -58608.42, 14353.82, -50974.45, 6929.02, 160939.06, 0.00, 0.00, 0.00, 1484601168912
58, 63710.16, -51654.70, 18689.95, -58592.77, 14373.04, -50996.35, 6948.17, 160933.73, 0.01, -0.03, 1.04, 1484601168916
59, 63715.86, -51692.74, 18715.54, -58596.91, 14399.53, -51135.96, 6977.54, 160927.59, 0.00, 0.00, 0.00, 1484601168918
60, 63703.27, -51516.43, 18704.19, -58585.64, 14382.88, -51139.07, 6961.41, 160924.38, 0.00, 0.00, 0.00, 1484601168922
61, 63664.11, -50852.61, 18674.23, -58550.91, 14354.65, -50954.42, 6935.63, 160923.19, 0.00, 0.00, 0.00, 1484601168927
62, 63644.42, -50527.95, 18684.31, -58529.27, 14364.57, -50885.67, 6945.76, 160919.56, 0.00, 0.00, 0.00, 1484601168931
63, 63648.13, -51048.16, 18712.25, -58530.30, 14393.58, -51078.32, 6976.29, 160914.42, 0.00, 0.00, 0.00, 1484601168936
64, 63633.71, -51636.71, 18708.39, -58517.02, 14390.12, -51122.93, 6970.06, 160906.66, 0.00, 0.00, 0.00, 1484601168939
65, 63596.88, -51834.86, 18680.04, -58480.66, 14356.64, -50911.50, 6936.89, 160902.63, 0.00, 0.00, 0.00, 1484601168941
66, 63574.08, -51563.55, 18688.72, -58456.74, 14365.85, -50807.61, 6945.94, 160900.22, 0.00, 0.00, 0.00, 1484601168947
67, 63579.54, -51561.70, 18712.59, -58460.52, 14392.15, -50959.07, 6969.56, 160896.81, 0.00, 0.00, 0.00, 1484601168950
68, 63575.31, -51509.95, 18711.03, -58456.83, 14391.08, -51002.84, 6967.11, 160890.83, 0.01, -0.03, 1.03, 1484601168954
69, 63539.55, -51023.82, 18683.60, -58424.60, 14362.96, -50902.45, 6938.67, 160886.70, 0.00, 0.00, 0.00, 1484601168958
70, 63508.55, -50386.55, 18686.75, -58394.58, 14366.74, -50728.20, 6941.16, 160884.19, 0.00, 0.00, 0.00, 1484601168962
71, 63507.45, -50689.46, 18720.23, -58389.06, 14397.88, -50870.02, 6968.33, 160878.06, 0.00, 0.00, 0.00, 1484601168965
72, 63504.75, -51220.70, 18726.20, -58386.46, 14406.32, -50990.99, 6972.92, 160872.67, 0.00, 0.00, 0.00, 1484601168970
73, 63471.89, -51487.27, 18698.33, -58356.71, 14379.39, -50842.86, 6949.34, 160869.75, 0.00, 0.00, 0.00, 1484601168974
74, 63438.12, -51821.76, 18685.59, -58321.33, 14366.14, -50627.06, 6936.55, 160865.59, 0.00, 0.00, 0.00, 1484601168978
75, 63437.18, -51890.15, 18704.45, -58317.58, 14390.63, -50755.36, 6960.94, 160862.66, 0.00, 0.00, 0.00, 1484601168982
76, 63442.14, -51906.70, 18723.29, -58321.38, 14407.58, -50878.87, 6979.51, 160857.88, 0.00, 0.00, 0.00, 1484601168986
77, 63416.90, -51604.92, 18701.01, -58298.00, 14381.16, -50832.98, 6953.65, 160853.16, 0.00, 0.00, 0.00, 1484601168990
78, 63381.36, -51140.39, 18681.92, -58264.27, 14361.08, -50626.07, 6934.02, 160851.59, 0.01, -0.02, 1.04, 1484601168993
79, 63372.58, -50986.83, 18705.68, -58253.54, 14381.69, -50697.31, 6957.65, 160846.52, 0.00, 0.00, 0.00, 1484601168998
80, 63378.53, -51023.67, 18729.82, -58258.23, 14405.03, -50798.34, 6978.91, 160841.22, 0.00, 0.00, 0.00, 1484601169002
81, 63359.50, -50680.95, 18713.08, -58242.21, 14385.11, -50778.67, 6953.47, 160838.19, 0.00, 0.00, 0.00, 1484601169006
82, 63320.95, -50012.21, 18688.11, -58205.19, 14367.66, -50565.37, 6935.81, 160836.16, 0.00, 0.00, 0.00, 1484601169011
83, 63303.00, -50215.47, 18703.43, -58184.96, 14390.03, -50539.91, 6963.08, 160830.11, 0.00, 0.00, 0.00, 1484601169015
84, 63303.29, -50802.99, 18722.33, -58184.05, 14408.85, -50749.57, 6982.89, 160821.88, 0.00, 0.00, 0.00, 1484601169017
85, 63290.26, -51396.54, 18707.72, -58172.85, 14392.38, -50771.02, 6969.14, 160820.38, 0.00, 0.00, 0.00, 1484601169021
86, 63254.29, -51451.86, 18686.01, -58136.91, 14367.77, -50531.19, 6943.21, 160818.25, 0.00, 0.00, 0.00, 1484601169027
87, 63233.78, -51197.03, 18697.41, -58115.47, 14377.31, -50481.46, 6952.60, 160813.58, 0.00, 0.00, 0.00, 1484601169031
88, 63238.13, -51220.16, 18715.56, -58118.47, 14401.70, -50639.71, 6975.73, 160807.36, 0.01, -0.02, 1.03, 1484601169034
89, 63230.24, -51120.72, 18712.46, -58111.56, 14393.34, -50671.83, 6967.46, 160801.97, 0.00, 0.00, 0.00, 1484601169038
90, 63192.76, -50560.11, 18678.84, -58078.12, 14364.13, -50528.98, 6938.34, 160799.66, 0.00, 0.00, 0.00, 1484601169042
91, 63164.98, -50023.29, 18680.96, -58050.25, 14371.19, -50396.79, 6944.33, 160795.41, 0.00, 0.00, 0.00, 1484601169045
92, 63164.89, -50441.05, 18710.29, -58046.50, 14396.36, -50557.25, 6969.30, 160788.00, 0.00, 0.00, 0.00, 1484601169050
93, 63158.70, -51043.80, 18707.13, -58041.04, 14392.67, -50636.71, 6966.81, 160782.48, 0.00, 0.00, 0.00, 1484601169054
94, 63126.42, -51383.46, 18678.77, -58009.41, 14366.85, -50478.04, 6936.28, 160779.73, 0.00, 0.00, 0.00, 1484601169058
95, 63096.38, -51116.63, 18676.47, -57978.97, 14364.33, -50314.42, 6935.54, 160776.00, 0.00, 0.00, 0.00, 1484601169063
96, 63096.94, -51066.78, 18701.88, -57977.79, 14387.57, -50460.43, 6962.10, 160771.94, 0.00, 0.00, 0.00, 1484601169066
97, 63099.82, -51063.18, 18712.23, -57980.60, 14395.71, -50525.51, 6967.93, 160768.30, 0.00, 0.00, 0.00, 1484601169070
98, 63071.43, -50674.35, 18680.71, -57955.52, 14365.29, -50469.95, 6939.39, 160766.25, 0.00, 0.00, 0.00, 1484601169074
99, 63034.89, -49974.81, 18668.67, -57921.70, 14352.97, -50264.96, 6927.32, 160763.55, 0.01, -0.02, 1.03, 1484601169078
100, 63029.08, -50109.26, 18696.41, -57912.09, 14377.78, -50354.54, 6949.11, 160757.92, 0.00, 0.00, 0.00, 1484601169081
101, 63030.04, -50704.42, 18709.15, -57912.27, 14388.67, -50493.26, 6962.84, 160752.06, 0.00, 0.00, 0.00, 1484601169085
102, 63005.50, -51216.45, 18685.43, -57888.71, 14367.95, -50420.97, 6940.24, 160748.47, 0.00, 0.00, 0.00, 1484601169090
103, 62967.50, -51100.58, 18667.13, -57851.34, 14348.17, -50198.04, 6921.02, 160744.00, 0.00, 0.00, 0.00, 1484601169095
104, 62957.06, -50940.27, 18695.58, -57838.67, 14368.89, -50260.69, 6944.40, 160737.89, 0.00, 0.00, 0.00, 1484601169099
105, 62962.18, -50977.76, 18713.42, -57842.54, 14391.75, -50370.93, 6968.02, 160731.52, 0.00, 0.00, 0.00, 1484601169101
106, 62944.21, -50754.35, 18689.32, -57826.46, 14370.12, -50370.44, 6945.54, 160727.44, 0.00, 0.00, 0.00, 1484601169106
107, 62903.60, -50086.12, 18671.08, -57790.34, 14347.27, -50170.52, 6921.40, 160725.16, 0.00, 0.00, 0.00, 1484601169109
108, 62888.93, -49809.50, 18691.73, -57773.16, 14363.07, -50149.13, 6940.82, 160722.06, 0.00, 0.00, 0.00, 1484601169113
109, 62894.61, -50347.26, 18707.65, -57776.55, 14385.11, -50339.19, 6966.23, 160718.38, 0.01, -0.02, 1.03, 1484601169117
110, 62879.46, -50851.98, 18685.66, -57763.50, 14371.57, -50352.42, 6950.41, 160714.52, 0.00, 0.00, 0.00, 1484601169123
111, 62839.58, -51116.71, 18653.67, -57723.98, 14343.05, -50122.27, 6921.33, 160709.13, 0.00, 0.00, 0.00, 1484601169127
112, 62819.53, -50939.40, 18668.69, -57702.19, 14356.01, -50057.69, 6931.79, 160705.27, 0.00, 0.00, 0.00, 1484601169129
113, 62822.95, -50955.36, 18700.56, -57703.55, 14383.77, -50221.02, 6962.10, 160698.13, 0.00, 0.00, 0.00, 1484601169133
114, 62815.17, -50862.04, 18697.72, -57696.87, 14378.90, -50243.55, 6958.39, 160692.52, 0.00, 0.00, 0.00, 1484601169137
115, 62781.04, -50395.23, 18669.43, -57665.75, 14352.88, -50108.36, 6928.73, 160692.14, 0.00, 0.00, 0.00, 1484601169142
116, 62752.45, -49787.50, 18675.15, -57639.13, 14357.49, -49981.32, 6933.47, 160689.09, 0.00, 0.00, 0.00, 1484601169146
117, 62755.61, -49921.50, 18705.15, -57637.55, 14385.43, -50143.70, 6964.45, 160683.95, 0.00, 0.00, 0.00, 1484601169151
118, 62748.99, -50416.95, 18707.13, -57631.33, 14386.83, -50220.19, 6964.96, 160677.31, 0.00, 0.00, 0.00, 1484601169155
119, 62714.16, -50572.86, 18675.20, -57598.75, 14357.93, -50048.01, 6930.23, 160674.86, 0.01, -0.03, 1.04, 1484601169158
120, 62680.19, -50944.12, 18671.87, -57564.12, 14353.91, -49845.13, 6926.87, 160670.06, 0.00, 0.00, 0.00, 1484601169161
121, 62679.77, -51347.34, 18700.38, -57559.92, 14378.30, -50002.30, 6952.35, 160664.13, 0.00, 0.00, 0.00, 1484601169166
122, 62682.38, -51360.04, 18708.23, -57562.13, 14387.10, -50142.29, 6962.97, 160659.73, 0.00, 0.00, 0.00, 1484601169170
123, 62654.08, -51011.42, 18680.65, -57536.11, 14365.44, -50055.86, 6942.41, 160656.28, 0.00, 0.00, 0.00, 1484601169173
124, 62621.63, -50564.05, 18673.96, -57504.93, 14349.37, -49855.92, 6925.96, 160655.61, 0.00, 0.00, 0.00, 1484601169178
125, 62616.09, -50451.39, 18694.62, -57497.31, 14371.19, -49956.91, 6948.46, 160650.31, 0.00, 0.00, 0.00, 1484601169183
126, 62621.36, -50478.75, 18701.21, -57502.30, 14385.27, -50024.97, 6961.29, 160646.20, 0.00, 0.00, 0.00, 1484601169185
127, 62598.41, -50144.39, 18672.11, -57482.18, 14364.28, -50004.23, 6938.45, 160643.34, 0.00, 0.00, 0.00, 1484601169190
128, 62557.41, -49414.72, 18654.97, -57443.91, 14346.65, -49789.00, 6917.40, 160639.39, 0.00, 0.00, 0.00, 1484601169194
129, 62544.11, -49534.21, 18678.64, -57427.42, 14369.22, -49810.64, 6938.63, 160633.33, 0.01, -0.03, 1.04, 1484601169198
130, 62546.91, -50138.58, 18701.88, -57428.13, 14387.95, -50006.15, 6960.53, 160627.31, 0.00, 0.00, 0.00, 1484601169201
131, 62528.38, -50723.39, 18687.42, -57410.23, 14369.47, -49986.03, 6944.46, 160623.27, 0.00, 0.00, 0.00, 1484601169206
132, 62491.63, -50617.42, 18661.69, -57374.33, 14344.28, -49747.47, 6918.11, 160621.28, 0.00, 0.00, 0.00, 1484601169211
133, 62475.18, -50384.79, 18677.18, -57356.90, 14360.35, -49739.92, 6935.28, 160616.83, 0.00, 0.00, 0.00, 1484601169213
134, 62480.45, -50415.68, 18704.97, -57360.59, 14388.38, -49878.50, 6959.19, 160610.89, 0.00, 0.00, 0.00, 1484601169218
135, 62467.63, -50266.75, 18692.07, -57349.10, 14376.51, -49893.07, 6945.16, 160605.17, 0.00, 0.00, 0.00, 1484601169221
136, 62429.20, -49607.30, 18668.60, -57314.95, 14347.16, -49722.77, 6917.10, 160604.25, 0.00, 0.00, 0.00, 1484601169226
137, 62408.88, -49253.92, 18675.66, -57293.15, 14356.93, -49624.09, 6930.69, 160603.41, 0.00, 0.00, 0.00, 1484601169230
138, 62411.12, -49767.79, 18698.78, -57292.32, 14383.64, -49815.27, 6956.49, 160597.41, 0.00, 0.00, 0.00, 1484601169234
139, 62400.75, -50377.79, 18695.69, -57282.76, 14378.50, -49891.98, 6950.16, 160591.27, 0.01, -0.03, 1.04, 1484601169239
140, 62365.41, -50608.30, 18671.55, -57247.93, 14350.96, -49688.64, 6923.92, 160588.09, 0.00, 0.00, 0.00, 1484601169242
141, 62340.15, -50319.72, 18673.41, -57222.07, 14354.09, -49560.23, 6924.88, 160585.86, 0.00, 0.00, 0.00, 1484601169246
142, 62339.97, -50301.06, 18696.54, -57220.00, 14380.64, -49713.52, 6951.57, 160578.02, 0.00, 0.00, 0.00, 1484601169249
143, 62336.51, -50265.34, 18702.02, -57216.91, 14383.55, -49755.23, 6957.85, 160571.08, 0.00, 0.00, 0.00, 1484601169254
144, 62305.29, -49804.13, 18667.82, -57189.08, 14355.88, -49672.21, 6929.80, 160570.02, 0.00, 0.00, 0.00, 1484601169257
145, 62273.61, -49139.37, 18665.54, -57158.95, 14352.23, -49483.54, 6923.32, 160569.20, 0.00, 0.00, 0.00, 1484601169262
146, 62270.66, -49406.96, 18695.98, -57152.20, 14378.56, -49607.39, 6951.48, 160563.70, 0.00, 0.00, 0.00, 1484601169267
147, 62269.01, -49964.55, 18702.89, -57150.66, 14385.56, -49752.77, 6960.82, 160558.09, 0.00, 0.00, 0.00, 1484601169269
148, 62239.79, -50388.12, 18674.84, -57123.70, 14360.19, -49626.93, 6934.99, 160555.34, 0.00, 0.00, 0.00, 1484601169274
149, 62207.14, -50464.18, 18667.93, -57089.57, 14350.22, -49404.13, 6922.80, 160553.09, 0.01, -0.03, 1.04, 1484601169278
150, 62201.55, -50368.31, 18695.47, -57081.59, 14375.17, -49503.97, 6948.46, 160548.17, 0.00, 0.00, 0.00, 1484601169281
151, 62203.07, -50395.34, 18707.69, -57082.80, 14393.05, -49619.57, 6965.29, 160540.11, 0.00, 0.00, 0.00, 1484601169286
152, 62182.80, -50122.71, 18683.00, -57064.49, 14369.00, -49601.65, 6939.57, 160538.00, 0.00, 0.00, 0.00, 1484601169290
153, 62141.31, -49646.08, 18663.57, -57027.73, 14353.80, -49390.56, 6924.44, 160534.42, 0.00, 0.00, 0.00, 1484601169294
154, 62124.39, -49461.48, 18685.34, -57014.25, 14375.23, -49433.12, 6946.63, 160529.42, 0.00, 0.00, 0.00, 1484601169298
155, 62135.61, -49481.30, 18710.51, -57019.50, 14397.72, -49533.18, 6970.59, 160524.59, 0.00, 0.00, 0.00, 1484601169302
156, 62118.71, -49035.01, 18688.65, -57003.88, 14375.32, -49531.44, 6945.49, 160519.92, 0.00, 0.00, 0.00, 1484601169306
157, 62079.35, -48687.57, 18662.46, -56964.56, 14347.20, -49314.03, 6916.57, 160516.77, 0.00, 0.00, 0.00, 1484601169311
158, 62061.49, -48975.31, 18681.50, -56944.84, 14362.22, -49257.41, 6936.82, 160514.00, 0.00, 0.00, 0.00, 1484601169314
159, 62064.62, -49577.04, 18712.77, -56945.22, 14389.40, -49481.60, 6960.53, 160507.89, 0.01, -0.03, 1.03, 1484601169318
160, 62048.57, -50239.14, 18698.28, -56929.87, 14377.78, -49546.37, 6947.84, 160499.88, 0.00, 0.00, 0.00, 1484601169323
161, 62011.96, -50146.23, 18661.83, -56894.29, 14350.80, -49308.21, 6923.88, 160497.23, 0.00, 0.00, 0.00, 1484601169326
162, 61993.59, -49833.13, 18691.00, -56873.83, 14376.80, -49224.55, 6943.84, 160496.45, 0.00, 0.00, 0.00, 1484601169330
163, 61997.21, -49841.75, 18710.44, -56876.58, 14399.02, -49382.24, 6968.92, 160491.28, 0.00, 0.00, 0.00, 1484601169334
164, 61991.36, -49770.02, 18678.32, -56873.39, 14372.82, -49417.87, 6950.23, 160487.22, 0.00, 0.00, 0.00, 1484601169337
165, 61953.45, -49178.89, 18642.25, -56840.02, 14333.88, -49299.81, 6912.70, 160483.69, 0.00, 0.00, 0.00, 1484601169342
166, 61926.55, -48699.73, 18643.52, -56812.30, 14334.60, -49139.17, 6914.31, 160482.28, 0.00, 0.00, 0.00, 1484601169346
167, 61928.03, -49154.19, 18672.47, -56810.24, 14363.16, -49294.85, 6943.57, 160478.39, 0.00, 0.00, 0.00, 1484601169349
168, 61920.21, -49761.42, 18678.21, -56802.53, 14366.14, -49400.86, 6946.88, 160469.38, 0.00, 0.00, 0.00, 1484601169353
169, 61888.89, -50147.93, 18644.33, -56772.33, 14332.79, -49252.47, 6918.60, 160466.50, 0.01, -0.02, 1.04, 1484601169357
170, 61857.11, -49885.56, 18637.87, -56740.06, 14327.58, -49069.70, 6910.98, 160462.78, 0.00, 0.00, 0.00, 1484601169361
171, 61855.81, -49810.05, 18670.17, -56737.31, 14354.85, -49203.70, 6935.03, 160458.94, 0.00, 0.00, 0.00, 1484601169366
172, 61858.00, -49817.81, 18686.42, -56739.21, 14367.57, -49269.66, 6948.40, 160453.36, 0.00, 0.00, 0.00, 1484601169370
173, 61830.42, -49456.30, 18652.53, -56714.35, 14343.78, -49223.99, 6924.55, 160449.44, 0.00, 0.00, 0.00, 1484601169374
174, 61791.48, -48739.96, 18637.13, -56678.77, 14332.00, -49016.95, 6914.20, 160446.34, 0.00, 0.00, 0.00, 1484601169377
175, 61782.36, -48825.30, 18667.77, -56666.07, 14361.17, -49082.33, 6940.98, 160440.41, 0.00, 0.00, 0.00, 1484601169381
176, 61783.21, -49426.10, 18691.11, -56665.18, 14377.92, -49248.25, 6954.97, 160433.39, 0.00, 0.00, 0.00, 1484601169385
177, 61761.73, -49965.56, 18674.72, -56643.88, 14360.28, -49190.06, 6935.77, 160429.97, 0.00, 0.00, 0.00, 1484601169390
178, 61725.77, -49839.05, 18650.12, -56608.27, 14340.16, -48957.23, 6915.27, 160427.92, 0.00, 0.00, 0.00, 1484601169394
179, 61711.20, -49649.66, 18664.82, -56592.45, 14359.72, -48996.12, 6934.07, 160421.22, 0.00, -0.02, 1.04, 1484601169398
180, 61715.69, -49685.13, 18689.54, -56596.00, 14383.03, -49111.74, 6956.15, 160414.69, 0.00, 0.00, 0.00, 1484601169402
181, 61700.94, -49487.34, 18678.66, -56583.02, 14366.94, -49111.30, 6937.40, 160411.42, 0.00, 0.00, 0.00, 1484601169406
182, 61660.88, -48810.98, 18652.62, -56547.32, 14339.40, -48924.61, 6911.07, 160409.66, 0.00, 0.00, 0.00, 1484601169409
183, 61642.00, -48526.95, 18658.81, -56526.75, 14355.00, -48870.88, 6928.01, 160406.03, 0.00, 0.00, 0.00, 1484601169412
184, 61645.28, -49064.34, 18690.57, -56526.66, 14382.74, -49070.95, 6954.72, 160400.05, 0.00, 0.00, 0.00, 1484601169417
185, 61632.32, -49667.03, 18670.88, -56515.49, 14365.67, -49111.34, 6943.30, 160395.63, 0.00, 0.00, 0.00, 1484601169424
186, 61595.17, -49819.38, 18644.55, -56479.08, 14339.45, -48888.72, 6915.92, 160392.33, 0.00, 0.00, 0.00, 1484601169426
187, 61573.93, -49544.54, 18654.56, -56456.79, 14348.66, -48798.86, 6926.65, 160390.39, 0.00, 0.00, 0.00, 1484601169430
188, 61577.82, -49545.68, 18691.89, -56458.29, 14377.96, -48962.19, 6956.51, 160384.52, 0.00, 0.00, 0.00, 1484601169433
189, 61572.04, -49472.05, 18695.69, -56452.43, 14383.44, -48996.54, 6960.71, 160377.97, 0.01, -0.02, 1.04, 1484601169437
190, 61533.97, -48955.57, 18663.50, -56418.30, 14354.54, -48876.27, 6927.61, 160373.30, 0.00, 0.00, 0.00, 1484601169442
191, 61506.37, -48350.18, 18665.40, -56391.39, 14354.58, -48717.50, 6928.06, 160372.95, 0.00, 0.00, 0.00, 1484601169446
192, 61504.42, -48704.38, 18687.94, -56386.16, 14379.19, -48870.10, 6950.30, 160366.39, 0.00, 0.00, 0.00, 1484601169450
193, 61498.86, -49230.41, 18690.53, -56381.20, 14390.43, -48978.50, 6958.37, 160359.92, 0.00, 0.00, 0.00, 1484601169454
194, 61464.37, -49532.07, 18662.28, -56349.66, 14363.45, -48814.44, 6930.47, 160356.64, 0.00, 0.00, 0.00, 1484601169458
195, 61433.39, -49810.01, 18655.70, -56316.38, 14351.07, -48611.40, 6920.52, 160353.69, 0.00, 0.00, 0.00, 1484601169462
196, 61430.82, -49823.45, 18680.92, -56311.02, 14374.74, -48750.88, 6945.51, 160348.06, 0.00, 0.00, 0.00, 1484601169466
197, 61434.13, -49832.86, 18694.71, -56313.63, 14382.72, -48866.52, 6955.48, 160342.98, 0.00, 0.00, 0.00, 1484601169470
198, 61408.58, -49509.67, 18677.70, -56289.87, 14361.55, -48807.54, 6932.44, 160339.81, 0.00, 0.00, 0.00, 1484601169474
199, 61370.09, -49046.07, 18658.03, -56252.57, 14347.34, -48601.14, 6920.95, 160334.52, 0.00, -0.02, 1.04, 1484601169477
200, 61363.88, -48905.86, 18678.66, -56244.56, 14365.85, -48681.20, 6941.51, 160331.34, 0.00, 0.00, 0.00, 1484601169482
201, 61370.09, -48937.58, 18699.71, -56249.93, 14384.04, -48773.07, 6958.19, 160327.17, 0.00, 0.00, 0.00, 1484601169486
202, 61346.57, -48527.45, 18671.71, -56229.59, 14364.44, -48764.29, 6935.84, 160321.77, 0.00, 0.00, 0.00, 1484601169489
203, 61306.34, -47950.57, 18651.88, -56191.08, 14342.80, -48535.05, 6918.07, 160318.73, 0.00, 0.00, 0.00, 1484601169493
204, 61291.25, -48236.02, 18672.00, -56174.04, 14359.90, -48527.56, 6935.32, 160314.75, 0.00, 0.00, 0.00, 1484601169497
205, 61291.97, -48854.47, 18700.32, -56172.88, 14386.88, -48736.34, 6960.60, 160306.77, 0.00, 0.00, 0.00, 1484601169501
206, 61273.91, -49478.80, 18678.86, -56155.58, 14374.96, -48744.41, 6945.27, 160300.61, 0.00, 0.00, 0.00, 1484601169506
207, 61237.79, -49354.93, 18646.18, -56120.80, 14344.90, -48509.74, 6919.97, 160299.63, 0.00, 0.00, 0.00, 1484601169511
208, 61219.53, -49085.75, 18667.57, -56100.80, 14362.05, -48471.63, 6941.87, 160295.38, 0.00, 0.00, 0.00, 1484601169517
209, 61226.52, -49109.15, 18697.93, -56105.60, 14392.49, -48619.40, 6966.10, 160291.16, 0.01, -0.03, 1.04, 1484601169521
210, 61217.13, -48987.33, 18688.70, -56097.54, 14383.86, -48651.16, 6960.89, 160286.50, 0.00, 0.00, 0.00, 1484601169524
211, 61178.04, -48340.43, 18665.29, -56062.53, 14358.45, -48493.40, 6934.23, 160283.64, 0.00, 0.00, 0.00, 1484601169527
212, 61154.01, -47964.43, 18673.23, -56037.41, 14363.39, -48368.48, 6937.42, 160281.58, 0.00, 0.00, 0.00, 1484601169531
213, 61154.17, -48470.89, 18702.84, -56034.46, 14389.67, -48543.43, 6964.65, 160274.72, 0.00, 0.00, 0.00, 1484601169535
214, 61147.11, -49118.83, 18708.92, -56027.44, 14390.97, -48623.22, 6964.31, 160269.42, 0.00, 0.00, 0.00, 1484601169539
215, 61114.50, -49350.01, 18675.28, -55995.23, 14361.62, -48446.93, 6932.73, 160267.44, 0.00, 0.00, 0.00, 1484601169542
216, 61083.36, -49025.46, 18667.28, -55964.30, 14358.60, -48295.01, 6929.67, 160262.30, 0.00, 0.00, 0.00, 1484601169545
217, 61084.57, -48981.95, 18698.33, -55963.67, 14389.18, -48443.40, 6960.40, 160258.11, 0.00, 0.00, 0.00, 1484601169549
218, 61085.44, -48964.31, 18709.06, -55964.74, 14393.90, -48492.29, 6961.96, 160253.78, 0.00, 0.00, 0.00, 1484601169553
219, 61053.52, -48518.80, 18673.61, -55936.04, 14367.39, -48425.32, 6933.71, 160249.91, 0.01, -0.03, 1.04, 1484601169558
220, 61017.64, -47844.45, 18672.07, -55902.11, 14362.74, -48222.41, 6933.04, 160247.14, 0.00, 0.00, 0.00, 1484601169562
221, 61012.73, -48113.13, 18689.81, -55893.80, 14384.84, -48327.49, 6952.67, 160242.16, 0.00, 0.00, 0.00, 1484601169566
222, 61012.68, -48726.89, 18702.11, -55893.11, 14396.53, -48495.06, 6962.41, 160236.66, 0.00, 0.00, 0.00, 1484601169571
223, 60985.37, -49221.71, 18680.98, -55866.62, 14371.14, -48396.20, 6940.95, 160231.97, 0.00, 0.00, 0.00, 1484601169574
224, 60948.69, -49020.82, 18661.20, -55830.34, 14354.94, -48168.19, 6922.22, 160228.55, 0.00, 0.00, 0.00, 1484601169577
225, 60939.46, -48864.98, 18684.56, -55819.61, 14378.63, -48242.53, 6944.33, 160223.48, 0.00, 0.00, 0.00, 1484601169583
226, 60945.94, -48892.14, 18706.02, -55824.69, 14397.43, -48350.33, 6963.66, 160219.06, 0.00, 0.00, 0.00, 1484601169586
227, 60925.87, -48631.49, 18686.88, -55806.80, 14373.92, -48339.00, 6941.38, 160215.13, 0.00, 0.00, 0.00, 1484601169591
228, 60884.54, -47908.70, 18669.83, -55769.52, 14350.69, -48128.63, 6919.52, 160212.19, 0.00, 0.00, 0.00, 1484601169594
229, 60868.00, -47807.16, 18676.85, -55750.55, 14364.08, -48116.51, 6936.06, 160206.77, 0.01, -0.02, 1.04, 1484601169598
230, 60869.83, -48402.30, 18695.74, -55750.21, 14386.01, -48302.14, 6956.51, 160199.73, 0.00, 0.00, 0.00, 1484601169601
231, 60854.16, -49029.49, 18686.66, -55735.10, 14378.68, -48302.70, 6944.89, 160195.27, 0.00, 0.00, 0.00, 1484601169605
232, 60819.12, -48947.23, 18658.25, -55700.88, 14355.99, -48078.69, 6916.32, 160195.14, 0.00, 0.00, 0.00, 1484601169609
233, 60800.30, -48669.71, 18673.07, -55681.14, 14368.51, -48032.46, 6932.01, 160192.36, 0.00, 0.00, 0.00, 1484601169614
234, 60805.64, -48687.73, 18700.94, -55684.83, 14391.15, -48196.80, 6956.38, 160187.30, 0.00, 0.00, 0.00, 1484601169617
235, 60796.39, -48571.88, 18686.82, -55676.23, 14385.09, -48237.36, 6951.79, 160181.38, 0.00, 0.00, 0.00, 1484601169622
236, 60756.98, -47928.02, 18656.40, -55641.71, 14357.62, -48078.98, 6920.55, 160178.86, 0.00, 0.00, 0.00, 1484601169626
237, 60730.16, -47542.05, 18663.68, -55614.29, 14360.39, -47946.97, 6927.48, 160175.39, 0.00, 0.00, 0.00, 1484601169629
238, 60730.56, -48044.20, 18690.84, -55611.52, 14385.07, -48117.85, 6952.93, 160168.97, 0.00, 0.00, 0.00, 1484601169633
239, 60724.61, -48700.31, 18690.55, -55606.00, 14385.96, -48202.99, 6953.58, 160164.33, 0.01, -0.02, 1.04, 1484601169638
240, 60689.70, -48938.70, 18660.87, -55571.96, 14352.57, -48034.77, 6919.92, 160159.94, 0.00, 0.00, 0.00, 1484601169642
241, 60659.91, -48604.65, 18652.04, -55541.98, 14348.46, -47875.73, 6915.50, 160156.53, 0.00, 0.00, 0.00, 1484601169646
242, 60661.31, -48552.10, 18683.62, -55541.11, 14375.97, -48015.34, 6946.97, 160152.81, 0.00, 0.00, 0.00, 1484601169650
243, 60661.74, -48537.79, 18692.90, -55541.42, 14386.83, -48069.84, 6957.11, 160147.41, 0.00, 0.00, 0.00, 1484601169654
244, 60630.29, -48101.51, 18657.18, -55513.73, 14359.50, -48012.57, 6930.56, 160143.66, 0.00, 0.00, 0.00, 1484601169658
245, 60593.10, -47420.95, 18648.82, -55478.28, 14351.56, -47804.79, 6922.80, 160139.77, 0.00, 0.00, 0.00, 1484601169662
246, 60586.59, -47678.10, 18678.64, -55468.09, 14377.45, -47898.13, 6947.15, 160133.61, 0.00, 0.00, 0.00, 1484601169666
247, 60587.64, -48300.35, 18694.24, -55468.36, 14393.58, -48050.73, 6963.71, 160128.70, 0.00, 0.00, 0.00, 1484601169670
248, 60563.91, -48805.12, 18670.66, -55445.42, 14369.47, -47963.73, 6936.53, 160126.50, 0.00, 0.00, 0.00, 1484601169674
249, 60528.79, -48583.39, 18654.01, -55411.07, 14348.72, -47738.38, 6916.32, 160124.89, 0.00, -0.02, 1.04, 1484601169679
250, 60519.49, -48421.19, 18670.39, -55400.18, 14365.64, -47807.90, 6935.37, 160120.25, 0.00, 0.00, 0.00, 1484601169682
251, 60523.18, -48451.07, 18691.33, -55402.69, 14382.63, -47925.34, 6952.08, 160113.16, 0.00, 0.00, 0.00, 1484601169685
252, 60505.12, -48200.51, 18674.57, -55386.59, 14368.19, -47911.99, 6933.71, 160109.88, 0.00, 0.00, 0.00, 1484601169690
253, 60464.73, -47477.09, 18647.70, -55350.45, 14345.48, -47707.20, 6914.94, 160108.02, 0.00, 0.00, 0.00, 1484601169693
254, 60449.60, -47362.94, 18667.53, -55332.66, 14363.25, -47684.11, 6935.84, 160104.63, 0.00, 0.00, 0.00, 1484601169697
255, 60451.25, -47950.97, 18694.78, -55331.56, 14389.20, -47879.85, 6958.32, 160097.11, 0.00, 0.00, 0.00, 1484601169702
0, 60434.33, -48579.59, 18681.88, -55315.38, 14372.93, -47889.77, 6944.15, 160090.78, 0.00, 0.00, 0.00, 1484601169707
1, 60399.08, -48546.09, 18655.77, -55281.20, 14341.91, -47666.01, 6913.86, 160090.34, 0.00, 0.00, 0.00, 1484601169710
2, 60378.43, -48267.68, 18659.15, -55260.08, 14348.99, -47613.77, 6919.79, 160086.55, 0.00, 0.00, 0.00, 1484601169713
3, 60381.74, -48282.54, 18681.99, -55261.42, 14374.99, -47777.95, 6946.23, 160079.48, 0.00, 0.00, 0.00, 1484601169719
4, 60372.71, -48174.94, 18682.30, -55253.22, 14372.75, -47808.77, 6938.83, 160073.38, 0.00, -0.02, 1.05, 1484601169721
5, 60334.24, -47553.18, 18648.26, -55219.47, 14339.00, -47661.38, 6905.24, 160071.14, 0.00, 0.00, 0.00, 1484601169725
6, 60309.43, -47114.97, 18658.23, -55193.23, 14349.13, -47517.50, 6921.26, 160069.73, 0.00, 0.00, 0.00, 1484601169729
7, 60308.51, -47595.11, 18693.75, -55188.40, 14383.48, -47683.71, 6955.28, 160062.25, 0.00, 0.00, 0.00, 1484601169735
8, 60301.34, -48260.90, 18692.45, -55181.74, 14383.08, -47774.71, 6955.26, 160055.88, 0.00, 0.00, 0.00, 1484601169737
9, 60269.42, -48505.83, 18662.77, -55151.00, 14354.27, -47610.42, 6921.31, 160054.09, 0.00, 0.00, 0.00, 1484601169741
10, 60238.42, -48163.09, 18666.14, -55120.05, 14352.52, -47445.53, 6923.70, 160050.31, 0.00, 0.00, 0.00, 1484601169745
11, 60236.90, -48104.66, 18690.44, -55116.52, 14377.74, -47580.29, 6949.43, 160044.36, 0.00, 0.00, 0.00, 1484601169749
12, 60237.66, -48097.69, 18686.19, -55117.41, 14382.01, -47642.43, 6950.63, 160038.81, 0.00, 0.00, 0.00, 1484601169753
13, 60207.59, -47661.23, 18658.54, -55090.77, 14351.52, -47593.72, 6921.42, 160035.53, 0.00, 0.00, 0.00, 1484601169757
14, 60171.41, -46984.35, 18649.94, -55056.17, 14338.89, -47378.66, 6909.44, 160033.09, 0.01, -0.03, 1.04, 1484601169762
15, 60164.19, -47250.63, 18681.10, -55044.63, 14366.45, -47463.46, 6936.60, 160026.77, 0.00, 0.00, 0.00, 1484601169766
16, 60163.61, -47896.66, 18702.69, -55043.45, 14387.44, -47630.49, 6955.28, 160020.30, 0.00, 0.00, 0.00, 1484601169768
17, 60138.62, -48394.99, 18685.32, -55019.38, 14367.79, -47551.84, 6933.65, 160015.91, 0.00, 0.00, 0.00, 1484601169773
18, 60102.27, -48112.62, 18660.89, -54983.88, 14349.15, -47326.11, 6915.94, 160013.55, 0.00, 0.00, 0.00, 1484601169777
19, 60092.13, -47937.65, 18683.82, -54971.81, 14368.66, -47384.63, 6939.19, 160008.64, 0.00, 0.00, 0.00, 1484601169782
20, 60098.52, -47970.17, 18698.04, -54977.42, 14387.77, -47495.15, 6960.51, 160004.38, 0.00, 0.00, 0.00, 1484601169785
21, 60080.21, -47719.86, 18675.75, -54961.17, 14368.33, -47493.90, 6937.11, 160000.39, 0.00, 0.00, 0.00, 1484601169790
22, 60036.98, -46984.30, 18655.75, -54921.97, 14342.98, -47288.98, 6910.85, 159995.91, 0.00, 0.00, 0.00, 1484601169793
23, 60019.59, -46927.98, 18670.81, -54901.89, 14358.54, -47255.07, 6930.18, 159991.23, 0.00, 0.00, 0.00, 1484601169797
24, 60021.88, -47521.86, 18695.31, -54901.94, 14381.47, -47448.48, 6951.39, 159984.89, 0.01, -0.02, 1.04, 1484601169801
25, 60007.23, -48156.96, 18684.69, -54888.11, 14375.21, -47466.36, 6945.29, 159980.39, 0.00, 0.00, 0.00, 1484601169806
26, 59969.82, -48121.20, 18653.33, -54851.36, 14348.19, -47242.38, 6916.61, 159977.38, 0.00, 0.00, 0.00, 1484601169809
27, 59949.46, -47828.20, 18668.02, -54830.10, 14361.96, -47180.13, 6928.79, 159974.47, 0.00, 0.00, 0.00, 1484601169813
28, 59953.81, -47837.11, 18700.32, -54832.49, 14388.20, -47339.03, 6955.33, 159968.81, 0.00, 0.00, 0.00, 1484601169818
29, 59946.88, -47737.54, 18697.77, -54826.26, 14382.65, -47370.03, 6949.07, 159964.03, 0.00, 0.00, 0.00, 1484601169821
30, 59909.45, -47119.91, 18662.61, -54793.58, 14351.43, -47232.50, 6919.36, 159962.67, 0.00, 0.00, 0.00, 1484601169825
31, 59881.62, -46677.10, 18662.23, -54764.97, 14351.63, -47085.65, 6918.94, 159959.45, 0.00, 0.00, 0.00, 1484601169829
32, 59877.08, -47156.97, 18690.88, -54756.95, 14377.65, -47247.23, 6946.88, 159949.22, 0.00, 0.00, 0.00, 1484601169834
33, 59873.08, -47832.51, 18688.25, -54753.21, 14378.18, -47355.77, 6947.44, 159945.41, 0.00, 0.00, 0.00, 1484601169837
34, 59841.50, -48085.08, 18662.14, -54722.97, 14348.99, -47196.98, 6916.41, 159943.58, 0.00, -0.03, 1.04, 1484601169841
35, 59812.11, -47736.55, 18653.89, -54693.93, 14345.97, -47023.02, 6912.17, 159942.22, 0.00, 0.00, 0.00, 1484601169846
36, 59811.12, -47669.81, 18677.32, -54690.56, 14375.64, -47156.75, 6947.35, 159937.08, 0.00, 0.00, 0.00, 1484601169850
37, 59812.06, -47665.92, 18684.63, -54691.45, 14385.45, -47218.30, 6954.21, 159931.38, 0.00, 0.00, 0.00, 1484601169852
38, 59784.03, -47237.80, 18667.71, -54666.69, 14356.91, -47170.94, 6927.01, 159929.44, 0.00, 0.00, 0.00, 1484601169857
39, 59747.24, -46555.87, 18657.45, -54631.71, 14344.43, -46954.78, 6917.15, 159927.08, 0.00, 0.00, 0.00, 1484601169862
40, 59736.38, -46816.69, 18679.80, -54617.54, 14369.78, -47030.73, 6944.17, 159918.64, 0.00, 0.00, 0.00, 1484601169866
41, 59736.27, -47480.11, 18693.86, -54616.46, 14384.82, -47193.29, 6959.71, 159911.84, 0.00, 0.00, 0.00, 1484601169869
42, 59714.11, -47984.14, 18673.07, -54594.85, 14358.63, -47130.20, 6931.97, 159909.05, 0.00, 0.00, 0.00, 1484601169874
43, 59677.79, -47684.59, 18653.60, -54559.54, 14341.08, -46904.48, 6909.42, 159906.92, 0.00, 0.00, 0.00, 1484601169878
44, 59667.82, -47502.08, 18671.22, -54548.16, 14363.01, -46958.18, 6932.39, 159903.38, 0.00, -0.02, 1.03, 1484601169880
45, 59671.20, -47533.53, 18692.79, -54550.88, 14379.39, -47068.95, 6952.78, 159896.17, 0.00, 0.00, 0.00, 1484601169885
46, 59654.14, -47292.87, 18670.34, -54535.77, 14362.52, -47061.66, 6932.39, 159892.27, 0.00, 0.00, 0.00, 1484601169890
47, 59612.55, -46557.03, 18642.38, -54497.84, 14338.00, -46865.08, 6907.23, 159889.05, 0.00, 0.00, 0.00, 1484601169893
48, 59593.64, -46494.11, 18659.08, -54476.52, 14355.56, -46823.26, 6923.85, 159884.09, 0.00, 0.00, 0.00, 1484601169897
49, 59596.48, -47092.26, 18686.55, -54477.26, 14382.74, -47016.87, 6954.54, 159878.63, 0.00, 0.00, 0.00, 1484601169901
50, 59583.29, -47744.98, 18682.55, -54463.98, 14378.03, -47044.21, 6952.44, 159873.73, 0.00, 0.00, 0.00, 1484601169906
51, 59547.37, -47689.30, 18666.86, -54428.42, 14360.75, -46823.84, 6928.84, 159871.77, 0.00, 0.00, 0.00, 1484601169909
52, 59524.44, -47390.75, 18662.28, -54406.00, 14350.40, -46757.59, 6921.53, 159867.81, 0.00, 0.00, 0.00, 1484601169913
53, 59528.64, -47399.15, 18678.93, -54408.64, 14368.53, -46910.12, 6944.11, 159862.44, 0.00, 0.00, 0.00, 1484601169917
54, 59523.12, -47311.55, 18672.45, -54403.90, 14366.29, -46931.98, 6939.30, 159858.20, 0.00, -0.02, 1.04, 1484601169922
55, 59486.02, -46709.76, 18640.48, -54371.53, 14332.41, -46809.83, 6906.04, 159856.52, 0.00, 0.00, 0.00, 1484601169926
56, 59455.14, -46242.98, 18640.33, -54340.13, 14327.38, -46655.46, 6906.26, 159851.22, 0.00, 0.00, 0.00, 1484601169930
57, 59453.09, -46713.67, 18672.58, -54334.36, 14357.15, -46817.43, 6936.22, 159843.59, 0.00, 0.00, 0.00, 1484601169934
58, 59449.31, -47406.62, 18675.84, -54330.36, 14357.62, -46932.76, 6936.10, 159838.53, 0.00, 0.00, 0.00, 1484601169936
59, 59418.78, -47649.83, 18642.45, -54301.04, 14326.71, -46784.23, 6905.12, 159836.77, 0.00, 0.00, 0.00, 1484601169941
60, 59389.81, -47284.96, 18649.42, -54272.09, 14324.63, -46607.05, 6901.53, 159836.27, 0.00, 0.00, 0.00, 1484601169946
61, 59385.72, -47209.27, 18677.56, -54265.99, 14358.89, -46734.50, 6934.76, 159829.11, 0.00, 0.00, 0.00, 1484601169949
62, 59387.22, -47211.42, 18687.02, -54267.15, 14369.35, -46780.07, 6942.81, 159823.11, 0.00, 0.00, 0.00, 1484601169953
63, 59358.90, -46786.94, 18668.31, -54241.73, 14349.89, -46745.41, 6919.79, 159819.50, 0.00, 0.00, 0.00, 1484601169958
64, 59320.45, -46112.34, 18653.49, -54205.26, 14339.31, -46531.91, 6907.31, 159816.06, 0.00, -0.02, 1.04, 1484601169962
65, 59312.88, -46384.38, 18673.65, -54194.35, 14361.98, -46602.52, 6928.21, 159811.64, 0.00, 0.00, 0.00, 1484601169964
66, 59314.91, -47067.12, 18695.56, -54194.91, 14382.01, -46760.38, 6948.15, 159805.98, 0.00, 0.00, 0.00, 1484601169968
67, 59293.16, -47561.92, 18676.92, -54173.18, 14364.37, -46713.82, 6930.67, 159801.94, 0.00, 0.00, 0.00, 1484601169974
68, 59257.13, -47229.97, 18655.73, -54138.52, 14340.12, -46491.07, 6905.86, 159800.53, 0.00, 0.00, 0.00, 1484601169978
69, 59245.78, -47039.09, 18673.68, -54125.73, 14359.61, -46535.53, 6925.89, 159796.55, 0.00, 0.00, 0.00, 1484601169981
70, 59250.92, -47071.97, 18702.29, -54129.60, 14384.87, -46631.86, 6949.74, 159790.38, 0.00, 0.00, 0.00, 1484601169986
71, 59234.40, -46835.38, 18693.08, -54115.29, 14372.71, -46632.35, 6934.34, 159786.31, 0.00, 0.00, 0.00, 1484601169989
72, 59193.00, -46095.58, 18663.33, -54077.88, 14346.60, -46441.87, 6910.02, 159783.77, 0.00, 0.00, 0.00, 1484601169993
73, 59173.63, -46069.04, 18681.95, -54055.28, 14362.40, -46391.51, 6925.64, 159778.28, 0.00, 0.00, 0.00, 1484601169997
74, 59175.19, -46691.70, 18704.45, -54054.45, 14386.30, -46585.21, 6945.78, 159770.75, 0.01, -0.02, 1.04, 1484601170002
75, 59163.23, -47372.71, 18692.41, -54042.92, 14376.11, -46626.45, 6930.78, 159766.20, 0.00, 0.00, 0.00, 1484601170005
76, 59127.25, -47230.78, 18663.01, -54008.34, 14352.43, -46415.16, 6907.54, 159764.97, 0.00, 0.00, 0.00, 1484601170010
77, 59104.05, -46911.55, 18665.76, -53984.85, 14350.47, -46336.93, 6917.48, 159761.30, 0.00, 0.00, 0.00, 1484601170014
78, 59106.39, -46918.86, 18703.45, -53985.29, 14377.71, -46473.68, 6944.15, 159753.70, 0.00, 0.00, 0.00, 1484601170017
79, 59103.29, -46839.33, 18709.82, -53982.84, 14374.65, -46505.26, 6940.13, 159750.59, 0.00, 0.00, 0.00, 1484601170021
80, 59067.43, -46203.38, 18673.43, -53951.39, 14342.94, -46389.30, 6911.43, 159749.88, 0.00, 0.00, 0.00, 1484601170024
81, 59036.77, -45806.34, 18672.15, -53919.91, 14344.39, -46219.85, 6913.71, 159745.92, 0.00, 0.00, 0.00, 1484601170028
82, 59036.39, -46304.97, 18700.12, -53915.80, 14373.20, -46380.47, 6942.07, 159739.98, 0.00, 0.00, 0.00, 1484601170034
83, 59032.43, -47029.95, 18704.86, -53912.16, 14376.51, -46508.99, 6942.76, 159734.19, 0.00, 0.00, 0.00, 1484601170038
84, 59000.51, -47236.54, 18673.41, -53881.36, 14352.64, -46365.61, 6916.28, 159730.56, 0.00, -0.02, 1.03, 1484601170042
85, 58966.89, -46848.27, 18659.59, -53848.37, 14343.36, -46180.04, 6905.95, 159726.75, 0.00, 0.00, 0.00, 1484601170046
86, 58964.61, -46766.71, 18696.34, -53843.76, 14375.88, -46302.96, 6939.08, 159721.41, 0.00, 0.00, 0.00, 1484601170050
87, 58967.34, -46780.50, 18698.93, -53846.65, 14386.48, -46343.88, 6952.73, 159716.08, 0.00, 0.00, 0.00, 1484601170052
88, 58939.56, -46351.84, 18674.08, -53822.04, 14367.70, -46310.18, 6934.36, 159712.95, 0.00, 0.00, 0.00, 1484601170057
89, 58901.98, -45670.69, 18670.03, -53785.76, 14354.92, -46086.10, 6916.61, 159711.20, 0.00, 0.00, 0.00, 1484601170062
90, 58891.77, -45956.79, 18683.87, -53773.07, 14361.13, -46154.34, 6921.71, 159705.20, 0.00, 0.00, 0.00, 1484601170065
91, 58894.45, -46667.33, 18687.80, -53774.99, 14362.65, -46341.40, 6924.93, 159699.72, 0.00, 0.00, 0.00, 1484601170070
92, 58875.45, -47160.48, 18672.58, -53755.41, 14338.15, -46300.05, 6897.61, 159696.91, 0.00, 0.00, 0.00, 1484601170072
93, 58835.91, -46798.27, 18662.66, -53716.11, 14316.29, -46061.40, 6874.99, 159692.22, 0.00, 0.00, 0.00, 1484601170078
94, 58824.47, -46593.13, 18693.72, -53702.23, 14339.38, -46091.66, 6896.72, 159688.09, 0.01, -0.02, 1.04, 1484601170082
95, 58831.31, -46638.30, 18717.91, -53707.46, 14359.12, -46195.76, 6913.46, 159682.42, 0.00, 0.00, 0.00, 1484601170085
96, 58815.80, -46417.35, 18701.21, -53693.52, 14338.02, -46221.53, 6889.50, 159677.45, 0.00, 0.00, 0.00, 1484601170090
97, 58776.08, -45668.93, 18684.47, -53656.52, 14314.46, -46017.34, 6863.37, 159676.08, 0.00, 0.00, 0.00, 1484601170094
98, 58756.39, -45634.48, 18701.88, -53634.30, 14327.42, -45954.83, 6871.35, 159671.95, 0.00, 0.00, 0.00, 1484601170098
99, 58760.01, -46267.59, 18728.97, -53635.13, 14348.90, -46158.09, 6886.28, 159665.69, 0.00, 0.00, 0.00, 1484601170101
100, 58749.55, -46963.27, 18731.95, -53623.84, 14346.40, -46207.07, 6880.20, 159660.20, 0.00, 0.00, 0.00, 1484601170104
101, 58711.37, -46820.44, 18704.54, -53586.65, 14313.41, -45996.67, 6844.42, 159656.41, 0.00, 0.00, 0.00, 1484601170109
102, 58688.32, -46484.83, 18720.64, -53562.60, 14324.32, -45903.42, 6852.33, 159653.50, 0.00, 0.00, 0.00, 1484601170113
103, 58695.59, -46490.31, 18757.56, -53567.43, 14357.35, -46058.72, 6887.00, 159650.44, 0.00, 0.00, 0.00, 1484601170118
104, 58690.27, -46425.96, 18758.07, -53562.60, 14361.17, -46063.86, 6890.91, 159644.06, 0.01, -0.03, 1.04, 1484601170122
105, 58649.61, -45801.20, 18732.35, -53526.01, 14333.86, -45956.06, 6860.22, 159637.89, 0.00, 0.00, 0.00, 1484601170124
106, 58617.36, -45372.30, 18729.82, -53493.80, 14328.67, -45782.59, 6854.18, 159633.84, 0.00, 0.00, 0.00, 1484601170130
107, 58615.10, -45867.28, 18757.76, -53488.39, 14359.86, -45940.63, 6887.60, 159627.03, 0.00, 0.00, 0.00, 1484601170133
108, 58614.41, -46627.23, 18759.57, -53487.21, 14368.10, -46065.04, 6891.27, 159622.58, 0.00, 0.00, 0.00, 1484601170136
109, 58586.87, -46799.75, 18724.97, -53461.04, 14335.60, -45934.98, 6858.10, 159622.70, 0.00, 0.00, 0.00, 1484601170140
110, 58550.13, -46388.83, 18714.73, -53425.27, 14321.41, -45745.48, 6845.33, 159617.06, 0.00, 0.00, 0.00, 1484601170144
111, 58548.98, -46308.72, 18741.96, -53421.88, 14349.53, -45871.14, 6874.59, 159613.05, 0.00, 0.00, 0.00, 1484601170149
112, 58555.00, -46340.93, 18752.69, -53427.30, 14364.17, -45915.33, 6888.23, 159608.69, 0.00, 0.00, 0.00, 1484601170153
113, 58528.33, -45929.73, 18726.80, -53404.17, 14338.67, -45896.09, 6861.40, 159605.55, 0.00, 0.00, 0.00, 1484601170157
114, 58485.24, -45239.91, 18717.86, -53362.93, 14328.90, -45668.43, 6854.18, 159599.73, 0.00, -0.03, 1.04, 1484601170162
115, 58476.86, -45513.69, 18745.76, -53351.51, 14354.27, -45724.56, 6878.86, 159596.19, 0.00, 0.00, 0.00, 1484601170164
116, 58483.07, -46246.92, 18761.81, -53356.27, 14376.44, -45905.95, 6899.38, 159592.45, 0.00, 0.00, 0.00, 1484601170169
117, 58462.66, -46744.92, 18734.29, -53336.13, 14353.19, -45882.21, 6876.47, 159587.94, 0.00, 0.00, 0.00, 1484601170173
118, 58422.85, -46354.92, 18716.93, -53297.69, 14331.29, -45638.37, 6853.58, 159585.22, 0.00, 0.00, 0.00, 1484601170177
119, 58409.38, -46132.30, 18740.78, -53282.60, 14354.13, -45657.88, 6879.62, 159581.25, 0.00, 0.00, 0.00, 1484601170181
120, 58414.96, -46181.09, 18770.64, -53286.31, 14380.84, -45779.88, 6906.20, 159573.48, 0.00, 0.00, 0.00, 1484601170185
121, 58400.99, -45967.21, 18760.13, -53274.18, 14366.02, -45798.81, 6886.91, 159569.28, 0.00, 0.00, 0.00, 1484601170189
122, 58358.82, -45210.78, 18729.80, -53235.68, 14337.55, -45598.36, 6857.25, 159567.06, 0.00, 0.00, 0.00, 1484601170193
123, 58337.00, -45178.17, 18743.21, -53212.17, 14352.46, -45521.36, 6874.73, 159563.02, 0.00, 0.00, 0.00, 1484601170197
124, 58341.80, -45816.52, 18777.45, -53214.00, 14390.86, -45717.59, 6910.73, 159557.31, 0.00, -0.03, 1.04, 1484601170201
125, 58332.15, -46536.49, 18766.61, -53204.13, 14389.23, -45770.38, 6909.04, 159551.47, 0.00, 0.00, 0.00, 1484601170206
126, 58295.71, -46395.43, 18730.61, -53169.46, 14351.79, -45579.23, 6874.68, 159549.92, 0.00, 0.00, 0.00, 1484601170209
127, 58271.62, -46048.26, 18740.30, -53144.82, 14351.79, -45477.48, 6875.91, 159547.28, 0.00, 0.00, 0.00, 1484601170213
128, 58276.00, -46063.25, 18766.03, -53147.02, 14382.18, -45634.30, 6904.25, 159540.69, 0.00, 0.00, 0.00, 1484601170216
129, 58274.30, -46024.57, 18766.12, -53145.90, 14382.03, -45656.27, 6907.65, 159535.64, 0.00, 0.00, 0.00, 1484601170220
130, 58237.27, -45418.34, 18735.70, -53113.46, 14347.03, -45567.92, 6872.89, 159532.58, 0.00, 0.00, 0.00, 1484601170225
131, 58205.77, -44958.27, 18731.43, -53082.20, 14345.64, -45387.70, 6870.41, 159530.52, 0.00, 0.00, 0.00, 1484601170229
132, 58205.46, -45458.13, 18761.43, -53078.48, 14377.94, -45530.39, 6905.06, 159524.91, 0.00, 0.00, 0.00, 1484601170234
133, 58204.70, -46260.53, 18766.28, -53076.76, 14384.93, -45616.46, 6913.08, 159517.69, 0.00, 0.00, 0.00, 1484601170237
134, 58176.43, -46402.51, 18732.84, -53049.43, 14355.14, -45533.63, 6883.96, 159515.63, 0.01, -0.03, 1.04, 1484601170240
135, 58139.48, -45970.86, 18720.44, -53013.55, 14341.42, -45337.52, 6870.37, 159510.88, 0.00, 0.00, 0.00, 1484601170303
136, 58136.95, -45887.50, 18753.47, -53009.15, 14367.81, -45449.36, 6893.61, 159506.05, 0.00, 0.00, 0.00, 1484601170303
137, 58142.70, -45934.98, 18766.21, -53014.63, 14379.93, -45484.73, 6907.72, 159500.41, 0.00, 0.00, 0.00, 1484601170303
138, 58118.24, -45544.89, 18734.94, -52993.32, 14350.27, -45485.95, 6878.97, 159497.89, 0.00, 0.00, 0.00, 1484601170303
139, 58077.79, -44840.55, 18714.73, -52955.10, 14337.30, -45259.15, 6864.78, 159495.47, 0.00, 0.00, 0.00, 1484601170303
140, 58066.61, -45093.44, 18733.87, -52940.91, 14358.96, -45307.57, 6888.11, 159489.89, 0.00, 0.00, 0.00, 1484601170303
141, 58070.99, -45827.58, 18758.90, -52943.59, 14384.02, -45483.32, 6913.13, 159483.95, 0.00, 0.00, 0.00, 1484601170303
142, 58050.12, -46331.48, 18734.47, -52923.54, 14357.71, -45455.54, 6884.74, 159479.16, 0.00, 0.00, 0.00, 1484601170303
143, 58008.59, -45931.69, 18701.70, -52884.16, 14332.52, -45205.44, 6855.35, 159476.66, 0.00, 0.00, 0.00, 1484601170304
144, 57993.05, -45683.16, 18722.54, -52867.02, 14355.03, -45201.73, 6877.70, 159472.98, 0.01, -0.02, 1.04, 1484601170304
145, 57999.49, -45712.31, 18749.71, -52871.89, 14373.53, -45379.23, 6901.23, 159468.25, 0.00, 0.00, 0.00, 1484601170304
146, 57982.01, -45453.57, 18727.99, -52857.16, 14351.25, -45378.15, 6881.19, 159463.11, 0.00, 0.00, 0.00, 1484601170304
147, 57935.12, -44676.13, 18697.61, -52813.35, 14321.52, -45110.82, 6853.11, 159459.42, 0.00, 0.00, 0.00, 1484601170304
148, 57910.08, -44690.79, 18714.22, -52786.57, 14335.83, -44972.47, 6864.94, 159457.31, 0.00, 0.00, 0.00, 1484601170304
149, 57910.37, -45250.86, 18746.12, -52784.00, 14369.49, -45164.20, 6897.48, 159451.50, 0.00, 0.00, 0.00, 1484601170304
150, 57895.38, -45676.32, 18736.06, -52770.66, 14366.29, -45220.28, 6891.36, 159446.80, 0.00, 0.00, 0.00, 1484601170305
151, 57849.91, -45747.34, 18713.17, -52727.85, 14336.18, -44892.16, 6859.68, 159444.64, 0.00, 0.00, 0.00, 1484601170309
152, 57819.71, -46151.59, 18724.46, -52695.93, 14336.36, -44688.11, 6863.80, 159442.66, 0.00, 0.00, 0.00, 1484601170314
153, 57818.21, -46462.21, 18749.51, -52690.68, 14369.35, -44886.35, 6892.79, 159434.09, 0.00, 0.00, 0.00, 1484601170319
154, 57813.28, -46384.94, 18732.30, -52685.83, 14367.12, -45053.07, 6893.86, 159428.89, 0.00, 0.00, 0.00, 1484601170321
155, 57777.98, -45910.04, 18694.66, -52653.15, 14335.51, -44825.13, 6863.01, 159429.05, 0.01, -0.02, 1.05, 1484601170325
156, 57741.86, -45447.67, 18694.53, -52617.59, 14331.98, -44607.93, 6862.16, 159424.80, 0.00, 0.00, 0.00, 1484601170329
157, 57740.79, -45374.57, 18731.23, -52614.13, 14359.59, -44779.75, 6892.03, 159420.02, 0.00, 0.00, 0.00, 1484601170333
158, 57742.09, -45350.14, 18735.01, -52615.34, 14365.09, -45008.57, 6894.08, 159415.44, 0.00, 0.00, 0.00, 1484601170337
159, 57706.19, -44733.93, 18708.39, -52583.37, 14340.41, -44847.52, 6864.78, 159410.77, 0.00, 0.00, 0.00, 1484601170341
160, 57665.44, -44296.62, 18705.62, -52542.82, 14337.66, -44559.92, 6861.94, 159407.34, 0.00, 0.00, 0.00, 1484601170345
161, 57658.45, -44726.20, 18731.68, -52533.01, 14357.06, -44641.17, 6884.63, 159403.34, 0.00, 0.00, 0.00, 1484601170349
162, 57658.16, -45416.22, 18744.91, -52531.40, 14368.21, -44868.64, 6895.65, 159395.61, 0.00, 0.00, 0.00, 1484601170352
163, 57631.31, -45867.66, 18722.47, -52505.50, 14350.29, -44767.84, 6884.69, 159391.58, 0.00, 0.00, 0.00, 1484601170357
164, 57591.59, -45499.57, 18705.62, -52467.03, 14329.64, -44493.80, 6861.40, 159389.55, 0.00, 0.00, 0.00, 1484601170361
165, 57580.62, -45315.79, 18733.02, -52454.20, 14353.13, -44555.90, 6883.80, 159384.77, 0.00, -0.02, 1.04, 1484601170365
166, 57585.63, -45355.98, 18754.63, -52457.60, 14376.64, -44842.09, 6908.48, 159377.52, 0.00, 0.00, 0.00, 1484601170370
167, 57564.14, -45049.09, 18730.49, -52438.89, 14359.56, -44842.52, 6891.31, 159372.27, 0.00, 0.00, 0.00, 1484601170373
168, 57521.74, -44288.73, 18697.95, -52399.53, 14339.25, -44543.49, 6869.67, 159371.22, 0.00, 0.00, 0.00, 1484601170377
169, 57502.79, -44398.43, 18713.97, -52378.56, 14355.56, -44499.53, 6885.25, 159366.77, 0.00, 0.00, 0.00, 1484601170380
170, 57507.77, -45065.94, 18743.59, -52380.91, 14381.56, -44747.52, 6912.70, 159361.25, 0.00, 0.00, 0.00, 1484601170386
171, 57494.30, -45720.29, 18730.65, -52367.57, 14370.00, -44802.75, 6901.01, 159356.63, 0.00, 0.00, 0.00, 1484601170390
172, 57453.21, -45461.14, 18705.17, -52327.93, 14342.78, -44534.91, 6875.33, 159353.05, 0.00, 0.00, 0.00, 1484601170393
173, 57431.75, -45142.81, 18720.59, -52305.56, 14357.62, -44464.37, 6889.90, 159349.92, 0.00, 0.00, 0.00, 1484601170397
174, 57437.01, -45172.11, 18747.50, -52308.73, 14386.05, -44741.91, 6916.28, 159343.08, 0.00, 0.00, 0.00, 1484601170401
175, 57428.56, -45064.76, 18732.68, -52301.96, 14369.09, -44899.89, 6901.32, 159336.70, 0.00, -0.03, 1.04, 1484601170405
176, 57388.73, -44347.45, 18708.32, -52266.40, 14337.57, -44658.71, 6868.74, 159334.89, 0.00, 0.00, 0.00, 1484601170408
177, 57359.67, -44113.87, 18717.95, -52236.52, 14347.63, -44486.61, 6878.28, 159332.30, 0.00, 0.00, 0.00, 1484601170412
178, 57361.53, -44682.01, 18749.60, -52234.95, 14379.28, -44678.45, 6906.67, 159326.83, 0.00, 0.00, 0.00, 1484601170417
179, 57356.05, -45458.82, 18742.79, -52229.23, 14376.44, -44820.57, 6905.48, 159318.88, 0.00, 0.00, 0.00, 1484601170422
180, 57322.86, -45499.72, 18712.41, -52197.00, 14353.02, -44645.08, 6887.78, 159316.08, 0.00, 0.00, 0.00, 1484601170425
181, 57289.51, -45077.84, 18715.03, -52163.07, 14351.81, -44458.78, 6886.86, 159311.58, 0.00, 0.00, 0.00, 1484601170429
182, 57292.13, -45027.23, 18752.62, -52163.34, 14384.42, -44610.39, 6917.44, 159308.48, 0.00, 0.00, 0.00, 1484601170433
183, 57295.19, -45048.75, 18768.24, -52166.22, 14391.19, -44655.92, 6920.39, 159302.13, 0.00, 0.00, 0.00, 1484601170436
184, 57262.82, -44562.38, 18747.37, -52137.88, 14359.50, -44607.04, 6889.54, 159296.83, 0.00, 0.00, 0.00, 1484601170440
185, 57224.00, -43947.46, 18725.89, -52100.82, 14345.95, -44386.59, 6879.22, 159293.97, 0.00, -0.02, 1.03, 1484601170446
186, 57219.30, -44321.74, 18741.60, -52092.77, 14378.85, -44479.37, 6908.54, 159290.28, 0.00, 0.00, 0.00, 1484601170449
187, 57223.57, -45108.77, 18761.09, -52095.14, 14403.53, -44629.77, 6932.48, 159283.75, 0.00, 0.00, 0.00, 1484601170453
188, 57201.42, -45495.99, 18727.32, -52074.36, 14368.46, -44596.91, 6899.98, 159280.16, 0.00, 0.00, 0.00, 1484601170457
189, 57162.42, -45072.65, 18695.58, -52037.36, 14336.83, -44376.10, 6872.33, 159277.20, 0.00, 0.00, 0.00, 1484601170461
190, 57154.04, -44904.90, 18717.98, -52027.21, 14361.35, -44437.01, 6896.59, 159273.45, 0.00, 0.00, 0.00, 1484601170464
191, 57162.77, -44975.98, 18744.31, -52034.73, 14385.69, -44506.17, 6919.45, 159267.55, 0.00, 0.00, 0.00, 1484601170468
192, 57146.99, -44748.77, 18728.84, -52021.16, 14366.94, -44521.86, 6899.36, 159263.75, 0.00, 0.00, 0.00, 1484601170472
193, 57105.33, -44002.25, 18706.11, -51983.34, 14337.71, -44340.65, 6869.50, 159261.31, 0.00, 0.00, 0.00, 1484601170477
194, 57088.03, -43983.67, 18721.84, -51963.29, 14356.73, -44312.13, 6892.38, 159256.44, 0.00, 0.00, 0.00, 1484601170482
195, 57092.14, -44701.50, 18744.87, -51965.17, 14380.42, -44462.65, 6914.94, 159248.38, 0.00, -0.02, 1.04, 1484601170485
196, 57082.29, -45371.27, 18740.80, -51954.88, 14372.64, -44471.86, 6906.49, 159243.50, 0.00, 0.00, 0.00, 1484601170488
197, 57047.55, -45064.04, 18727.27, -51921.78, 14341.01, -44303.04, 6878.03, 159244.38, 0.00, 0.00, 0.00, 1484601170493
198, 57026.56, -44753.69, 18730.36, -51900.05, 14346.00, -44240.61, 6880.85, 159241.11, 0.00, 0.00, 0.00, 1484601170497
199, 57028.82, -44795.71, 18735.34, -51900.77, 14373.15, -44370.18, 6906.76, 159230.80, 0.00, 0.00, 0.00, 1484601170500
200, 57022.74, -44725.55, 18727.50, -51895.92, 14366.94, -44385.67, 6904.65, 159224.36, 0.00, 0.00, 0.00, 1484601170505
201, 56983.31, -44057.16, 18700.47, -51860.83, 14332.81, -44277.04, 6871.15, 159221.34, 0.00, 0.00, 0.00, 1484601170509
202, 56954.61, -43714.36, 18702.58, -51831.55, 14333.23, -44118.97, 6873.03, 159219.14, 0.00, 0.00, 0.00, 1484601170513
203, 56955.77, -44275.25, 18739.52, -51829.18, 14367.95, -44283.52, 6906.33, 159212.94, 0.00, 0.00, 0.00, 1484601170517
204, 56953.52, -45074.68, 18750.27, -51825.71, 14379.26, -44371.83, 6917.24, 159206.23, 0.00, 0.00, 0.00, 1484601170521
205, 56919.90, -45113.33, 18708.46, -51794.18, 14342.44, -44254.98, 6880.45, 159202.70, 0.01, -0.02, 1.04, 1484601170525
206, 56887.85, -44686.16, 18701.17, -51762.75, 14331.22, -44072.16, 6865.81, 159200.88, 0.00, 0.00, 0.00, 1484601170529
207, 56888.63, -44627.87, 18736.66, -51760.69, 14364.53, -44212.69, 6903.36, 159196.14, 0.00, 0.00, 0.00, 1484601170533
208, 56892.39, -44656.79, 18745.65, -51764.27, 14371.99, -44247.63, 6910.62, 159190.27, 0.00, 0.00, 0.00, 1484601170538
209, 56861.88, -44190.31, 18709.46, -51737.94, 14343.54, -44212.91, 6881.45, 159186.48, 0.00, 0.00, 0.00, 1484601170541
210, 56821.89, -43548.86, 18701.06, -51699.23, 14336.86, -43987.38, 6870.55, 159182.88, 0.00, 0.00, 0.00, 1484601170544
211, 56813.80, -43901.29, 18737.56, -51688.05, 14363.63, -44070.29, 6895.76, 159177.25, 0.00, 0.00, 0.00, 1484601170549
212, 56819.99, -44677.80, 18761.96, -51692.79, 14375.50, -44233.92, 6911.58, 159173.31, 0.00, 0.00, 0.00, 1484601170555
213, 56798.55, -45085.72, 18724.95, -51672.00, 14345.82, -44195.59, 6886.86, 159170.05, 0.00, 0.00, 0.00, 1484601170557
214, 56757.61, -44658.14, 18693.59, -51632.71, 14322.97, -43963.06, 6862.70, 159166.00, 0.00, 0.00, 0.00, 1484601170563
215, 56745.11, -44465.51, 18721.73, -51618.13, 14349.46, -44009.60, 6888.83, 159160.02, 0.01, -0.02, 1.04, 1484601170567
216, 56753.27, -44523.76, 18741.89, -51625.02, 14375.97, -44107.90, 6914.20, 159154.67, 0.00, 0.00, 0.00, 1484601170570
217, 56739.66, -44277.13, 18722.38, -51613.89, 14356.35, -44107.63, 6894.57, 159153.27, 0.00, 0.00, 0.00, 1484601170574
218, 56696.16, -43520.41, 18703.51, -51573.95, 14330.95, -43907.92, 6867.95, 159150.22, 0.00, 0.00, 0.00, 1484601170576
219, 56675.28, -43565.43, 18725.84, -51550.59, 14352.14, -43855.29, 6885.97, 159144.38, 0.00, 0.00, 0.00, 1484601170580
220, 56679.44, -44258.20, 18746.05, -51552.35, 14382.30, -44053.05, 6917.31, 159137.28, 0.00, 0.00, 0.00, 1484601170585
221, 56669.85, -44941.78, 18728.64, -51543.10, 14366.87, -44102.32, 6902.75, 159133.69, 0.00, 0.00, 0.00, 1484601170589
222, 56631.68, -44663.50, 18699.60, -51506.66, 14331.56, -43894.71, 6870.93, 159131.94, 0.00, 0.00, 0.00, 1484601170593
223, 56607.04, -44330.37, 18712.68, -51481.48, 14338.44, -43810.85, 6877.97, 159127.27, 0.00, 0.00, 0.00, 1484601170596
224, 56612.45, -44355.34, 18741.78, -51484.71, 14368.35, -43955.98, 6905.33, 159120.98, 0.00, 0.00, 0.00, 1484601170600
225, 56609.10, -44286.88, 18733.80, -51482.52, 14363.92, -43984.12, 6898.51, 159116.83, 0.01, -0.02, 1.04, 1484601170605
226, 56570.45, -43613.26, 18704.14, -51447.84, 14338.42, -43866.46, 6871.98, 159114.11, 0.00, 0.00, 0.00, 1484601170609
227, 56538.07, -43280.33, 18706.80, -51414.38, 14340.99, -43693.28, 6876.16, 159109.03, 0.00, 0.00, 0.00, 1484601170612
228, 56538.60, -43835.14, 18748.02, -51412.09, 14367.99, -43856.42, 6903.02, 159103.48, 0.00, 0.00, 0.00, 1484601170617
229, 56536.75, -44637.53, 18744.87, -51410.38, 14366.63, -43960.25, 6902.51, 159097.72, 0.00, 0.00, 0.00, 1484601170621
230, 56506.68, -44704.88, 18695.94, -51381.38, 14341.57, -43842.03, 6875.42, 159096.22, 0.00, 0.00, 0.00, 1484601170625
231, 56471.55, -44272.79, 18691.82, -51346.58, 14334.82, -43649.78, 6870.43, 159091.80, 0.00, 0.00, 0.00, 1484601170629
232, 56470.96, -44207.68, 18721.20, -51344.08, 14360.08, -43783.60, 6896.99, 159087.16, 0.00, 0.00, 0.00, 1484601170632
