%OpenBCI Raw EEG Data
%Sample Rate = 250.0 Hz
%First Column = SampleIndex
%Other Columns = EEG data in microvolts followed by Accel Data (in G) interleaved with Aux Data
0, -120122.36, -113415.72, -114035.63, -117027.27, -136190.16, -148000.78, -155031.11, -131657.89, 0.01, 0.10, 1.03, 1483139272678
1, -120122.92, -113416.37, -114035.91, -117027.36, -136190.20, -148000.81, -155031.06, -131657.52, 0.00, 0.00, 0.00, 1483139272682
2, -120119.12, -113412.79, -114034.35, -117025.66, -136188.48, -147998.63, -155028.94, -131653.63, 0.00, 0.00, 0.00, 1483139272686
3, -120115.72, -113409.64, -114032.02, -117023.45, -136186.20, -147996.28, -155026.94, -131651.13, 0.00, 0.00, 0.00, 1483139272690
4, -120121.53, -113415.52, -114036.18, -117027.72, -136190.31, -148001.00, -155031.83, -131657.11, 0.00, 0.00, 0.00, 1483139272694
5, -120124.88, -113418.91, -114038.69, -117030.06, -136192.45, -148003.45, -155034.17, -131659.50, 0.00, 0.00, 0.00, 1483139272697
6, -120117.47, -113411.83, -114033.43, -117024.61, -136186.97, -147997.47, -155028.16, -131651.81, 0.00, 0.00, 0.00, 1483139272702
7, -120113.48, -113408.26, -114031.09, -117022.48, -136184.84, -147994.97, -155025.97, -131648.81, 0.01, 0.12, 1.03, 1483139272705
8, -120118.41, -113413.24, -114034.55, -117026.17, -136188.38, -147999.03, -155030.33, -131654.23, 0.00, 0.00, 0.00, 1483139272710
9, -120119.88, -113414.83, -114034.80, -117026.33, -136188.44, -147999.41, -155030.70, -131654.92, 0.00, 0.00, 0.00, 1483139272715
10, -120116.82, -113412.01, -114033.43, -117024.61, -136186.73, -147997.25, -155028.55, -131651.34, 0.00, 0.00, 0.00, 1483139272719
11, -120113.94, -113409.41, -114032.54, -117023.78, -136185.73, -147995.91, -155027.52, -131649.11, 0.00, 0.00, 0.00, 1483139272721
12, -120117.11, -113412.70, -114034.73, -117026.20, -136187.88, -147998.72, -155030.52, -131653.02, 0.00, 0.00, 0.00, 1483139272725
13, -120121.83, -113417.35, -114037.77, -117029.28, -136190.81, -148002.05, -155033.97, -131657.22, 0.00, 0.00, 0.00, 1483139272729
14, -120118.27, -113414.02, -114035.20, -117026.60, -136188.03, -147999.03, -155030.94, -131652.94, 0.00, 0.00, 0.00, 1483139272733
15, -120113.40, -113409.48, -114032.72, -117023.94, -136185.44, -147995.97, -155028.08, -131648.55, 0.00, 0.00, 0.00, 1483139272737
16, -120116.05, -113412.32, -114034.88, -117026.33, -136187.77, -147998.34, -155031.06, -131652.13, 0.00, 0.00, 0.00, 1483139272742
17, -120121.94, -113418.11, -114038.93, -117030.49, -136191.61, -148002.73, -155035.66, -131657.56, 0.00, 0.12, 1.03, 1483139272746
18, -120120.26, -113416.57, -114037.70, -117029.23, -136190.11, -148001.28, -155034.02, -131655.13, 0.00, 0.00, 0.00, 1483139272749
19, -120115.86, -113412.61, -114035.83, -117027.23, -136188.09, -147998.81, -155031.52, -131651.08, 0.00, 0.00, 0.00, 1483139272754
20, -120116.59, -113413.58, -114036.70, -117028.19, -136189.16, -147999.95, -155033.11, -131652.95, 0.00, 0.00, 0.00, 1483139272757
21, -120120.44, -113417.40, -114038.62, -117030.24, -136191.08, -148002.36, -155035.73, -131656.55, 0.00, 0.00, 0.00, 1483139272761
22, -120121.31, -113418.31, -114039.63, -117030.91, -136191.61, -148002.97, -155036.19, -131656.38, 0.00, 0.00, 0.00, 1483139272766
23, -120117.40, -113414.87, -114038.24, -117029.26, -136189.98, -148000.84, -155034.02, -131652.48, 0.00, 0.00, 0.00, 1483139272770
24, -120115.88, -113413.73, -114037.52, -117028.74, -136189.33, -148000.23, -155033.73, -131652.03, 0.00, 0.00, 0.00, 1483139272773
25, -120120.86, -113418.60, -114040.66, -117032.14, -136192.45, -148003.91, -155037.78, -131657.06, 0.00, 0.00, 0.00, 1483139272777
26, -120120.77, -113418.60, -114040.02, -117031.52, -136191.66, -148003.19, -155036.95, -131656.02, 0.00, 0.00, 0.00, 1483139272781
27, -120116.52, -113414.70, -114038.04, -117029.20, -136189.44, -148000.48, -155034.23, -131651.59, 0.00, 0.12, 1.03, 1483139272786
28, -120114.25, -113412.55, -114036.88, -117028.12, -136188.33, -147999.14, -155033.27, -131650.23, 0.00, 0.00, 0.00, 1483139272790
29, -120118.47, -113416.91, -114039.42, -117030.87, -136190.84, -148002.23, -155036.70, -131654.77, 0.00, 0.00, 0.00, 1483139272794
30, -120121.78, -113420.15, -114041.66, -117032.99, -136192.95, -148004.58, -155039.05, -131657.30, 0.00, 0.00, 0.00, 1483139272799
31, -120118.00, -113416.63, -114039.73, -117030.98, -136190.77, -148001.95, -155036.41, -131653.05, 0.00, 0.00, 0.00, 1483139272802
32, -120114.67, -113413.75, -114038.28, -117029.57, -136189.20, -148000.19, -155034.84, -131650.67, 0.00, 0.00, 0.00, 1483139272805
33, -120117.80, -113416.99, -114040.05, -117031.63, -136191.00, -148002.67, -155037.59, -131654.44, 0.00, 0.00, 0.00, 1483139272810
34, -120121.34, -113420.52, -114042.09, -117033.59, -136192.95, -148004.95, -155039.89, -131657.22, 0.00, 0.00, 0.00, 1483139272814
35, -120119.84, -113419.20, -114042.10, -117033.28, -136192.58, -148004.34, -155039.11, -131655.09, 0.00, 0.00, 0.00, 1483139272817
36, -120114.72, -113414.29, -114039.06, -117030.24, -136189.44, -148000.94, -155035.88, -131650.58, 0.00, 0.00, 0.00, 1483139272822
37, -120114.72, -113414.31, -114038.20, -117029.51, -136188.69, -148000.39, -155035.84, -131651.34, 0.00, 0.11, 1.03, 1483139272826
38, -120120.93, -113420.59, -114042.82, -117034.29, -136193.28, -148005.41, -155040.86, -131657.09, 0.00, 0.00, 0.00, 1483139272830
39, -120121.40, -113421.48, -114044.45, -117035.77, -136194.58, -148006.55, -155041.86, -131656.95, 0.00, 0.00, 0.00, 1483139272833
40, -120112.86, -113413.35, -114038.30, -117029.39, -136188.34, -147999.77, -155035.22, -131648.91, 0.00, 0.00, 0.00, 1483139272837
41, -120113.66, -113414.29, -114038.75, -117030.11, -136188.89, -148000.58, -155036.50, -131650.56, 0.00, 0.00, 0.00, 1483139272841
42, -120119.09, -113419.77, -114042.42, -117033.84, -136192.33, -148004.55, -155040.67, -131655.55, 0.00, 0.00, 0.00, 1483139272845
43, -120118.54, -113419.27, -114042.30, -117033.55, -136191.80, -148004.03, -155040.05, -131654.11, 0.00, 0.00, 0.00, 1483139272849
44, -120111.77, -113412.86, -114037.97, -117029.13, -136187.39, -147999.03, -155035.09, -131647.59, 0.00, 0.00, 0.00, 1483139272854
45, -120112.93, -113414.09, -114039.27, -117030.60, -136188.84, -148000.64, -155036.97, -131649.72, 0.00, 0.00, 0.00, 1483139272858
46, -120119.21, -113420.34, -114043.60, -117035.12, -136193.22, -148005.58, -155042.16, -131655.97, 0.00, 0.00, 0.00, 1483139272860
47, -120118.59, -113420.03, -114042.93, -117034.27, -136192.34, -148004.63, -155041.27, -131654.56, 0.01, 0.11, 1.03, 1483139272865
48, -120113.82, -113415.70, -114040.49, -117031.72, -136189.70, -148001.53, -155038.16, -131649.83, 0.00, 0.00, 0.00, 1483139272869
49, -120112.48, -113414.52, -114039.83, -117031.36, -136189.17, -148001.05, -155037.86, -131649.42, 0.00, 0.00, 0.00, 1483139272873
50, -120116.51, -113418.42, -114042.04, -117033.71, -136191.36, -148003.72, -155041.02, -131653.53, 0.00, 0.00, 0.00, 1483139272878
51, -120117.47, -113419.54, -114042.46, -117033.91, -136191.59, -148004.03, -155041.22, -131653.69, 0.00, 0.00, 0.00, 1483139272882
52, -120112.55, -113414.96, -114039.65, -117030.98, -136188.59, -148000.63, -155037.75, -131648.50, 0.00, 0.00, 0.00, 1483139272886
53, -120110.27, -113412.88, -114038.80, -117030.20, -136187.67, -147999.55, -155037.02, -131647.13, 0.00, 0.00, 0.00, 1483139272889
54, -120115.05, -113417.71, -114042.09, -117033.62, -136190.81, -148003.25, -155041.08, -131652.31, 0.00, 0.00, 0.00, 1483139272894
55, -120118.09, -113420.84, -114044.16, -117035.65, -136192.61, -148005.38, -155043.16, -131654.61, 0.00, 0.00, 0.00, 1483139272897
56, -120113.69, -113416.70, -114041.59, -117032.88, -136189.89, -148002.16, -155039.88, -131649.88, 0.00, 0.00, 0.00, 1483139272901
57, -120109.46, -113412.84, -114039.24, -117030.35, -136187.47, -147999.52, -155037.39, -131646.42, 0.00, 0.11, 1.03, 1483139272906
58, -120115.12, -113418.63, -114043.71, -117035.18, -136191.98, -148004.55, -155042.80, -131652.86, 0.00, 0.00, 0.00, 1483139272911
59, -120118.78, -113422.27, -114045.84, -117037.35, -136193.94, -148006.91, -155045.28, -131655.69, 0.00, 0.00, 0.00, 1483139272913
60, -120112.99, -113416.70, -114041.50, -117032.73, -136189.31, -148001.83, -155040.28, -131649.20, 0.00, 0.00, 0.00, 1483139272916
61, -120108.34, -113412.45, -114038.98, -117030.29, -136186.78, -147998.92, -155037.58, -131645.11, 0.00, 0.00, 0.00, 1483139272921
62, -120111.66, -113415.90, -114041.66, -117033.02, -136189.55, -148002.03, -155041.00, -131649.27, 0.00, 0.00, 0.00, 1483139272925
63, -120114.85, -113419.14, -114043.09, -117034.55, -136190.81, -148003.80, -155042.78, -131651.91, 0.00, 0.00, 0.00, 1483139272929
64, -120111.70, -113416.21, -114040.85, -117032.12, -136188.19, -148001.09, -155040.02, -131648.06, 0.00, 0.00, 0.00, 1483139272934
65, -120108.77, -113413.53, -114040.18, -117031.43, -136187.52, -147999.86, -155038.89, -131645.48, 0.00, 0.00, 0.00, 1483139272936
66, -120110.63, -113415.59, -114041.86, -117033.26, -136189.20, -148001.78, -155041.31, -131648.31, 0.00, 0.00, 0.00, 1483139272940
67, -120114.18, -113419.23, -114043.65, -117035.07, -136190.89, -148004.13, -155043.73, -131651.59, 0.01, 0.11, 1.02, 1483139272944
68, -120113.22, -113418.34, -114042.87, -117034.29, -136190.11, -148003.08, -155042.56, -131649.69, 0.00, 0.00, 0.00, 1483139272949
69, -120106.38, -113411.79, -114038.51, -117029.70, -136185.42, -147998.05, -155037.42, -131643.09, 0.00, 0.00, 0.00, 1483139272954
70, -120108.59, -113414.27, -114041.08, -117032.48, -136188.09, -148000.84, -155040.59, -131646.36, 0.00, 0.00, 0.00, 1483139272957
71, -120114.18, -113419.95, -114044.84, -117036.34, -136191.75, -148004.95, -155045.02, -131651.84, 0.00, 0.00, 0.00, 1483139272961
72, -120114.45, -113420.26, -114044.99, -117036.34, -136191.56, -148004.86, -155044.92, -131651.19, 0.00, 0.00, 0.00, 1483139272965
73, -120109.62, -113415.79, -114042.55, -117033.75, -136188.89, -148001.75, -155041.75, -131646.39, 0.00, 0.00, 0.00, 1483139272969
74, -120108.46, -113414.89, -114042.27, -117033.64, -136188.64, -148001.47, -155041.75, -131646.11, 0.00, 0.00, 0.00, 1483139272972
75, -120114.07, -113420.46, -114046.04, -117037.59, -136192.48, -148005.73, -155046.48, -131651.86, 0.00, 0.00, 0.00, 1483139272976
76, -120115.23, -113421.66, -114046.51, -117037.91, -136192.73, -148006.19, -155046.83, -131652.16, 0.00, 0.00, 0.00, 1483139272981
77, -120109.98, -113416.77, -114043.31, -117034.49, -136189.23, -148002.31, -155042.92, -131646.66, 0.01, 0.11, 1.02, 1483139272986
78, -120107.67, -113414.73, -114042.48, -117033.66, -136188.42, -148001.33, -155042.17, -131645.25, 0.00, 0.00, 0.00, 1483139272990
79, -120112.05, -113419.19, -114045.34, -117036.79, -136191.41, -148004.78, -155045.95, -131650.03, 0.00, 0.00, 0.00, 1483139272992
80, -120116.35, -113423.61, -114048.52, -117039.92, -136194.34, -148007.92, -155049.23, -131653.53, 0.00, 0.00, 0.00, 1483139272996
81, -120111.99, -113419.59, -114045.91, -117037.13, -136191.45, -148004.70, -155045.91, -131648.80, 0.00, 0.00, 0.00, 1483139273000
82, -120105.44, -113413.44, -114041.26, -117032.48, -136186.84, -147999.70, -155041.17, -131643.03, 0.00, 0.00, 0.00, 1483139273006
83, -120111.79, -113419.77, -114046.30, -117037.91, -136192.08, -148005.36, -155047.25, -131649.94, 0.00, 0.00, 0.00, 1483139273010
84, -120116.75, -113424.68, -114049.91, -117041.38, -136195.30, -148009.02, -155051.00, -131654.25, 0.00, 0.00, 0.00, 1483139273013
85, -120112.03, -113420.15, -114046.42, -117037.69, -136191.50, -148005.05, -155046.83, -131648.89, 0.00, 0.00, 0.00, 1483139273017
86, -120108.19, -113416.70, -114044.81, -117036.10, -136189.83, -148002.98, -155045.02, -131645.64, 0.00, 0.00, 0.00, 1483139273021
87, -120111.61, -113420.26, -114047.54, -117039.07, -136192.66, -148006.14, -155048.50, -131649.89, 0.01, 0.11, 1.03, 1483139273026
88, -120113.82, -113422.59, -114048.03, -117039.59, -136193.13, -148006.94, -155049.53, -131651.69, 0.00, 0.00, 0.00, 1483139273031
89, -120109.80, -113418.70, -114044.79, -117036.14, -136189.59, -148003.25, -155045.70, -131646.88, 0.00, 0.00, 0.00, 1483139273034
90, -120105.06, -113414.27, -114042.53, -117033.69, -136187.14, -148000.42, -155042.84, -131642.45, 0.00, 0.00, 0.00, 1483139273036
91, -120107.25, -113416.79, -114044.68, -117036.08, -136189.44, -148002.78, -155045.64, -131645.73, 0.00, 0.00, 0.00, 1483139273042
92, -120109.20, -113418.72, -114044.74, -117036.23, -136189.33, -148003.28, -155046.27, -131647.39, 0.00, 0.00, 0.00, 1483139273046
93, -120106.78, -113416.34, -114042.62, -117033.91, -136186.73, -148000.73, -155043.67, -131643.95, 0.00, 0.00, 0.00, 1483139273048
94, -120103.90, -113413.77, -114042.09, -117033.35, -136186.20, -147999.64, -155042.63, -131641.28, 0.00, 0.00, 0.00, 1483139273052
95, -120105.84, -113415.97, -114044.54, -117035.95, -136188.77, -148002.20, -155045.48, -131644.38, 0.00, 0.00, 0.00, 1483139273057
96, -120112.17, -113422.25, -114048.97, -117040.52, -136193.17, -148007.17, -155050.72, -131650.70, 0.00, 0.00, 0.00, 1483139273060
97, -120113.06, -113423.12, -114049.48, -117040.93, -136193.42, -148007.53, -155051.09, -131650.63, 0.00, 0.11, 1.03, 1483139273065
98, -120106.96, -113417.46, -114045.84, -117036.97, -136189.42, -148003.13, -155046.67, -131644.48, 0.00, 0.00, 0.00, 1483139273070
99, -120103.30, -113414.18, -114043.16, -117034.47, -136186.83, -148000.44, -155044.33, -131641.75, 0.00, 0.00, 0.00, 1483139273074
100, -120109.11, -113419.95, -114047.07, -117038.76, -136190.78, -148005.00, -155049.27, -131647.84, 0.00, 0.00, 0.00, 1483139273076
101, -120112.98, -113423.77, -114050.13, -117041.58, -136193.58, -148007.97, -155052.23, -131650.70, 0.00, 0.00, 0.00, 1483139273080
102, -120108.37, -113419.48, -114047.58, -117038.78, -136190.83, -148004.78, -155049.00, -131645.88, 0.00, 0.00, 0.00, 1483139273084
103, -120106.70, -113418.20, -114047.60, -117038.87, -136190.78, -148004.63, -155049.00, -131645.16, 0.00, 0.00, 0.00, 1483139273089
104, -120109.30, -113420.88, -114048.86, -117040.32, -136192.11, -148006.39, -155051.05, -131648.22, 0.00, 0.00, 0.00, 1483139273094
105, -120111.95, -113423.45, -114050.24, -117041.58, -136193.22, -148007.81, -155052.53, -131650.03, 0.00, 0.00, 0.00, 1483139273097
106, -120107.84, -113419.59, -114047.63, -117038.85, -136190.47, -148004.69, -155049.27, -131645.33, 0.00, 0.00, 0.00, 1483139273101
107, -120102.34, -113414.49, -114044.27, -117035.41, -136187.03, -148000.94, -155045.64, -131640.64, 0.00, 0.11, 1.03, 1483139273104
108, -120106.11, -113418.36, -114047.02, -117038.34, -136189.86, -148004.02, -155049.22, -131645.02, 0.00, 0.00, 0.00, 1483139273108
109, -120108.68, -113420.86, -114047.98, -117039.34, -136190.66, -148005.27, -155050.48, -131646.89, 0.00, 0.00, 0.00, 1483139273113
110, -120106.91, -113419.52, -114047.49, -117038.63, -136189.83, -148004.22, -155049.36, -131644.55, 0.00, 0.00, 0.00, 1483139273116
111, -120101.38, -113414.34, -114044.16, -117035.34, -136186.47, -148000.50, -155045.80, -131639.56, 0.00, 0.00, 0.00, 1483139273120
112, -120102.42, -113415.52, -114044.52, -117035.92, -136186.92, -148001.38, -155047.05, -131641.36, 0.00, 0.00, 0.00, 1483139273125
113, -120106.20, -113419.25, -114046.51, -117038.00, -136188.75, -148003.61, -155049.48, -131644.70, 0.00, 0.00, 0.00, 1483139273129
114, -120106.67, -113419.99, -114047.73, -117039.02, -136189.58, -148004.28, -155050.11, -131644.48, 0.00, 0.00, 0.00, 1483139273132
115, -120099.98, -113413.62, -114043.49, -117034.67, -136185.23, -147999.52, -155045.39, -131638.20, 0.00, 0.00, 0.00, 1483139273137
116, -120102.11, -113415.85, -114045.62, -117037.02, -136187.52, -148001.98, -155048.23, -131641.41, 0.00, 0.00, 0.00, 1483139273141
117, -120111.48, -113425.06, -114053.02, -117044.55, -136194.92, -148009.92, -155056.38, -131650.55, 0.00, 0.11, 1.03, 1483139273145
118, -120110.56, -113424.28, -114052.25, -117043.59, -136193.73, -148008.70, -155055.19, -131648.78, 0.00, 0.00, 0.00, 1483139273149
119, -120104.77, -113418.89, -114049.05, -117040.10, -136190.22, -148004.69, -155051.20, -131643.05, 0.00, 0.00, 0.00, 1483139273154
120, -120103.20, -113417.59, -114048.12, -117039.30, -136189.36, -148003.91, -155050.73, -131642.45, 0.00, 0.00, 0.00, 1483139273156
121, -120107.61, -113422.13, -114050.60, -117042.05, -136191.88, -148007.13, -155054.05, -131646.94, 0.00, 0.00, 0.00, 1483139273161
122, -120109.35, -113424.03, -114052.03, -117043.27, -136193.05, -148008.31, -155055.19, -131647.77, 0.00, 0.00, 0.00, 1483139273165
123, -120106.85, -113421.82, -114051.74, -117042.89, -136192.59, -148007.38, -155054.36, -131645.05, 0.00, 0.00, 0.00, 1483139273169
124, -120105.17, -113420.37, -114051.20, -117042.42, -136192.14, -148006.81, -155054.05, -131644.23, 0.00, 0.00, 0.00, 1483139273173
125, -120110.27, -113425.55, -114054.66, -117046.20, -136195.75, -148010.88, -155058.41, -131649.69, 0.00, 0.00, 0.00, 1483139273177
126, -120112.30, -113427.73, -114055.88, -117047.34, -136196.59, -148012.06, -155059.52, -131650.89, 0.00, 0.00, 0.00, 1483139273182
127, -120109.38, -113425.13, -114054.89, -117046.25, -136195.41, -148010.41, -155057.89, -131647.69, 0.00, 0.00, 0.00, 1483139273184
128, -120104.95, -113421.04, -114052.21, -117043.48, -136192.61, -148007.41, -155055.03, -131644.11, 0.00, 0.11, 1.04, 1483139273189
129, -120107.90, -113424.02, -114053.75, -117045.22, -136194.19, -148009.42, -155057.56, -131647.66, 0.00, 0.00, 0.00, 1483139273193
130, -120112.21, -113428.33, -114056.70, -117048.08, -136196.97, -148012.39, -155060.73, -131651.19, 0.00, 0.00, 0.00, 1483139273197
131, -120108.81, -113425.24, -114054.84, -117046.05, -136194.81, -148010.03, -155058.22, -131647.23, 0.00, 0.00, 0.00, 1483139273201
132, -120106.70, -113423.34, -114054.71, -117045.98, -136194.72, -148009.53, -155057.91, -131645.88, 0.00, 0.00, 0.00, 1483139273204
133, -120111.03, -113427.66, -114058.02, -117049.53, -136198.16, -148013.38, -155062.11, -131650.97, 0.00, 0.00, 0.00, 1483139273209
134, -120115.52, -113432.20, -114060.88, -117052.44, -136200.89, -148016.52, -155065.41, -131654.83, 0.00, 0.00, 0.00, 1483139273213
135, -120111.32, -113428.21, -114057.69, -117049.02, -136197.44, -148012.84, -155061.63, -131649.84, 0.00, 0.00, 0.00, 1483139273217
136, -120104.01, -113421.27, -114052.66, -117043.92, -136192.23, -148007.33, -155056.19, -131643.03, 0.00, 0.00, 0.00, 1483139273221
137, -120106.55, -113424.08, -114054.96, -117046.47, -136194.63, -148010.08, -155059.19, -131646.52, 0.00, 0.00, 0.00, 1483139273224
138, -120110.67, -113428.23, -114057.26, -117048.86, -136196.81, -148012.70, -155062.00, -131650.14, 0.01, 0.11, 1.03, 1483139273229
139, -120109.24, -113426.98, -114056.41, -117047.79, -136195.59, -148011.28, -155060.55, -131647.88, 0.00, 0.00, 0.00, 1483139273233
140, -120104.26, -113422.34, -114054.09, -117045.15, -136193.00, -148008.23, -155057.56, -131643.17, 0.00, 0.00, 0.00, 1483139273238
141, -120105.77, -113423.95, -114055.72, -117046.96, -136194.78, -148010.14, -155059.81, -131645.59, 0.00, 0.00, 0.00, 1483139273241
142, -120109.53, -113427.77, -114057.62, -117049.02, -136196.58, -148012.44, -155062.39, -131649.25, 0.00, 0.00, 0.00, 1483139273243
143, -120109.62, -113427.99, -114057.62, -117048.91, -136196.28, -148012.22, -155062.14, -131648.39, 0.00, 0.00, 0.00, 1483139273249
144, -120104.16, -113422.90, -114054.51, -117045.73, -136193.02, -148008.47, -155058.31, -131642.94, 0.00, 0.00, 0.00, 1483139273253
145, -120104.21, -113423.27, -114055.38, -117046.90, -136193.98, -148009.36, -155059.61, -131644.08, 0.00, 0.00, 0.00, 1483139273258
146, -120110.42, -113429.45, -114059.67, -117051.41, -136198.27, -148014.23, -155064.86, -131650.31, 0.00, 0.00, 0.00, 1483139273261
147, -120110.65, -113429.71, -114059.20, -117050.72, -136197.67, -148013.63, -155064.22, -131649.56, 0.00, 0.00, 0.00, 1483139273265
148, -120105.87, -113425.24, -114056.66, -117047.92, -136194.73, -148010.39, -155060.86, -131644.63, 0.01, 0.11, 1.03, 1483139273269
149, -120104.30, -113423.90, -114056.48, -117047.72, -136194.56, -148010.14, -155060.86, -131644.03, 0.00, 0.00, 0.00, 1483139273273
150, -120110.70, -113430.27, -114061.33, -117052.69, -136199.44, -148015.48, -155066.55, -131650.83, 0.00, 0.00, 0.00, 1483139273277
151, -120113.73, -113433.42, -114063.36, -117054.61, -136201.17, -148017.41, -155068.48, -131652.94, 0.00, 0.00, 0.00, 1483139273281
152, -120107.25, -113427.30, -114058.78, -117049.89, -136196.27, -148012.22, -155063.23, -131645.98, 0.00, 0.00, 0.00, 1483139273285
153, -120103.09, -113423.50, -114056.45, -117047.63, -136193.95, -148009.64, -155060.91, -131642.72, 0.00, 0.00, 0.00, 1483139273289
154, -120105.62, -113426.12, -114057.82, -117049.24, -136195.30, -148011.55, -155063.08, -131645.95, 0.00, 0.00, 0.00, 1483139273292
155, -120109.89, -113430.27, -114060.63, -117052.02, -136197.94, -148014.50, -155066.14, -131649.53, 0.00, 0.00, 0.00, 1483139273297
156, -120105.66, -113426.36, -114057.88, -117048.98, -136194.92, -148011.17, -155062.73, -131644.75, 0.00, 0.00, 0.00, 1483139273300
157, -120100.63, -113421.60, -114054.82, -117046.00, -136191.88, -148007.77, -155059.48, -131640.08, 0.00, 0.00, 0.00, 1483139273303
158, -120104.59, -113425.69, -114058.09, -117049.45, -136195.30, -148011.33, -155063.52, -131644.89, 0.00, 0.11, 1.02, 1483139273309
159, -120108.97, -113430.27, -114060.92, -117052.39, -136197.89, -148014.41, -155066.66, -131648.73, 0.00, 0.00, 0.00, 1483139273313
160, -120105.80, -113427.25, -114058.58, -117049.89, -136195.25, -148011.61, -155063.75, -131644.70, 0.00, 0.00, 0.00, 1483139273317
161, -120099.83, -113421.62, -114054.94, -117046.18, -136191.59, -148007.45, -155059.70, -131639.34, 0.00, 0.00, 0.00, 1483139273319
162, -120100.59, -113422.52, -114055.41, -117046.83, -136192.14, -148008.28, -155060.91, -131641.06, 0.00, 0.00, 0.00, 1483139273324
163, -120108.13, -113429.96, -114061.02, -117052.55, -136197.64, -148014.30, -155067.17, -131648.27, 0.00, 0.00, 0.00, 1483139273328
164, -120107.81, -113429.87, -114061.08, -117052.59, -136197.44, -148014.05, -155066.83, -131647.08, 0.00, 0.00, 0.00, 1483139273332
165, -120102.18, -113424.62, -114057.91, -117049.22, -136194.06, -148010.25, -155063.19, -131641.69, 0.00, 0.00, 0.00, 1483139273337
166, -120104.50, -113426.96, -114060.45, -117051.90, -136196.73, -148013.06, -155066.25, -131644.94, 0.00, 0.00, 0.00, 1483139273341
167, -120110.05, -113432.57, -114064.10, -117055.68, -136200.27, -148017.20, -155070.56, -131650.41, 0.00, 0.00, 0.00, 1483139273344
168, -120109.17, -113431.88, -114063.20, -117054.59, -136199.03, -148015.92, -155069.30, -131648.69, 0.00, 0.11, 1.02, 1483139273349
169, -120103.41, -113426.45, -114059.74, -117051.03, -136195.52, -148011.81, -155065.25, -131642.97, 0.00, 0.00, 0.00, 1483139273353
170, -120102.71, -113426.02, -114060.03, -117051.39, -136195.77, -148012.13, -155065.83, -131643.30, 0.00, 0.00, 0.00, 1483139273356
171, -120108.15, -113431.43, -114063.63, -117055.21, -136199.41, -148016.31, -155070.23, -131648.89, 0.00, 0.00, 0.00, 1483139273360
172, -120108.97, -113432.39, -114063.85, -117055.30, -136199.39, -148016.48, -155070.27, -131648.75, 0.00, 0.00, 0.00, 1483139273365
173, -120105.62, -113429.51, -114062.76, -117054.00, -136198.03, -148014.75, -155068.42, -131645.27, 0.00, 0.00, 0.00, 1483139273379
174, -120102.60, -113426.90, -114061.26, -117052.59, -136196.59, -148013.00, -155067.03, -131643.20, 0.00, 0.00, 0.00, 1483139273379
175, -120107.01, -113431.23, -114064.13, -117055.66, -136199.48, -148016.39, -155070.67, -131647.88, 0.00, 0.00, 0.00, 1483139273379
176, -120109.82, -113434.02, -114065.71, -117057.29, -136200.89, -148018.08, -155072.52, -131649.83, 0.00, 0.00, 0.00, 1483139273380
177, -120106.24, -113430.78, -114063.97, -117055.26, -136198.89, -148015.66, -155070.05, -131645.84, 0.00, 0.00, 0.00, 1483139273384
178, -120102.58, -113427.50, -114062.20, -117053.60, -136197.16, -148013.61, -155068.23, -131643.03, 0.00, 0.11, 1.02, 1483139273387
179, -120106.52, -113431.55, -114064.99, -117056.48, -136200.02, -148016.88, -155071.95, -131647.61, 0.00, 0.00, 0.00, 1483139273393
180, -120111.54, -113436.41, -114068.52, -117059.86, -136203.13, -148020.44, -155075.64, -131651.88, 0.00, 0.00, 0.00, 1483139273397
181, -120107.30, -113432.55, -114065.69, -117056.80, -136200.11, -148017.11, -155072.17, -131647.19, 0.00, 0.00, 0.00, 1483139273401
182, -120101.41, -113427.03, -114061.80, -117052.98, -136196.19, -148012.89, -155067.95, -131641.84, 0.00, 0.00, 0.00, 1483139273404
183, -120105.95, -113431.73, -114065.64, -117057.04, -136200.16, -148017.14, -155072.64, -131647.25, 0.00, 0.00, 0.00, 1483139273408
184, -120108.86, -113434.63, -114066.73, -117058.34, -136201.22, -148018.64, -155074.41, -131649.63, 0.00, 0.00, 0.00, 1483139273412
185, -120105.46, -113431.48, -114064.21, -117055.66, -136198.36, -148015.73, -155071.34, -131645.59, 0.00, 0.00, 0.00, 1483139273416
186, -120101.04, -113427.32, -114062.16, -117053.60, -136196.19, -148013.06, -155068.81, -131641.56, 0.00, 0.00, 0.00, 1483139273421
187, -120102.05, -113428.53, -114062.98, -117054.67, -136197.09, -148014.31, -155070.30, -131643.50, 0.00, 0.00, 0.00, 1483139273425
188, -120108.75, -113435.34, -114067.97, -117059.79, -136202.03, -148019.73, -155075.86, -131650.03, 0.00, 0.11, 1.02, 1483139273429
189, -120105.09, -113431.88, -114064.66, -117056.13, -136198.42, -148015.95, -155072.11, -131645.42, 0.00, 0.00, 0.00, 1483139273433
190, -120099.92, -113426.98, -114061.87, -117053.22, -136195.48, -148012.55, -155068.73, -131640.38, 0.00, 0.00, 0.00, 1483139273436
191, -120102.05, -113429.34, -114064.41, -117055.92, -136198.11, -148015.30, -155071.88, -131643.50, 0.00, 0.00, 0.00, 1483139273440
192, -120109.20, -113436.35, -114069.64, -117061.36, -136203.30, -148020.94, -155077.81, -131650.56, 0.00, 0.00, 0.00, 1483139273445
193, -120110.20, -113437.42, -114070.42, -117061.87, -136203.64, -148021.45, -155078.19, -131650.58, 0.00, 0.00, 0.00, 1483139273449
194, -120104.32, -113432.06, -114066.94, -117058.25, -136200.00, -148017.30, -155074.03, -131644.70, 0.00, 0.00, 0.00, 1483139273453
195, -120102.94, -113430.95, -114066.52, -117057.98, -136199.70, -148016.95, -155073.98, -131644.38, 0.00, 0.00, 0.00, 1483139273457
196, -120105.24, -113433.22, -114067.05, -117058.65, -136200.22, -148017.88, -155075.33, -131646.78, 0.00, 0.00, 0.00, 1483139273460
197, -120107.81, -113435.86, -114068.86, -117060.38, -136201.67, -148019.61, -155077.06, -131648.48, 0.00, 0.00, 0.00, 1483139273464
198, -120103.34, -113431.66, -114066.42, -117057.87, -136199.05, -148016.53, -155073.98, -131643.70, 0.01, 0.11, 1.03, 1483139273468
199, -120099.92, -113428.53, -114064.46, -117055.92, -136197.13, -148014.41, -155072.08, -131641.20, 0.00, 0.00, 0.00, 1483139273473
200, -120104.93, -113433.55, -114067.97, -117059.70, -136200.70, -148018.59, -155076.48, -131646.77, 0.00, 0.00, 0.00, 1483139273476
201, -120104.77, -113433.38, -114066.67, -117058.25, -136199.14, -148017.25, -155075.19, -131645.83, 0.00, 0.00, 0.00, 1483139273481
202, -120101.15, -113430.14, -114064.77, -117056.13, -136196.91, -148014.67, -155072.64, -131641.75, 0.00, 0.00, 0.00, 1483139273486
203, -120096.19, -113425.42, -114061.64, -117053.09, -136193.84, -148011.25, -155069.45, -131637.52, 0.00, 0.00, 0.00, 1483139273488
204, -120100.05, -113429.35, -114064.39, -117056.10, -136196.75, -148014.61, -155073.06, -131642.00, 0.00, 0.00, 0.00, 1483139273492
205, -120104.84, -113434.27, -114067.70, -117059.34, -136199.81, -148018.05, -155076.59, -131646.08, 0.00, 0.00, 0.00, 1483139273497
206, -120102.16, -113431.84, -114066.36, -117057.69, -136198.14, -148016.06, -155074.55, -131642.86, 0.00, 0.00, 0.00, 1483139273500
207, -120097.38, -113427.45, -114063.85, -117055.30, -136195.67, -148013.22, -155071.86, -131638.72, 0.00, 0.00, 0.00, 1483139273504
208, -120100.75, -113430.98, -114066.70, -117058.34, -136198.56, -148016.38, -155075.55, -131642.92, 0.01, 0.11, 1.02, 1483139273509
209, -120105.10, -113435.41, -114069.40, -117061.09, -136201.05, -148019.38, -155078.59, -131646.88, 0.00, 0.00, 0.00, 1483139273513
210, -120102.58, -113433.13, -114067.63, -117059.14, -136198.94, -148017.20, -155076.16, -131643.56, 0.00, 0.00, 0.00, 1483139273516
211, -120096.95, -113427.79, -114064.46, -117055.84, -136195.61, -148013.41, -155072.44, -131638.30, 0.00, 0.00, 0.00, 1483139273520
212, -120098.73, -113429.66, -114066.11, -117057.65, -136197.38, -148015.42, -155074.78, -131640.97, 0.00, 0.00, 0.00, 1483139273525
213, -120103.43, -113434.23, -114068.84, -117060.48, -136200.00, -148018.48, -155078.20, -131645.33, 0.00, 0.00, 0.00, 1483139273528
214, -120103.20, -113434.20, -114068.80, -117060.24, -136199.67, -148018.09, -155077.78, -131644.27, 0.00, 0.00, 0.00, 1483139273532
215, -120098.66, -113430.07, -114066.71, -117058.05, -136197.47, -148015.42, -155075.03, -131639.97, 0.00, 0.00, 0.00, 1483139273537
216, -120099.14, -113430.85, -114067.72, -117059.34, -136198.56, -148016.63, -155076.64, -131641.38, 0.00, 0.00, 0.00, 1483139273540
217, -120102.45, -113434.12, -114069.17, -117060.91, -136199.88, -148018.55, -155078.88, -131644.81, 0.00, 0.00, 0.00, 1483139273544
218, -120105.02, -113436.75, -114071.37, -117063.03, -136201.72, -148020.44, -155080.78, -131646.47, 0.01, 0.11, 1.03, 1483139273548
219, -120100.55, -113432.57, -114069.20, -117060.53, -136199.41, -148017.50, -155077.98, -131641.88, 0.00, 0.00, 0.00, 1483139273552
220, -120098.91, -113431.16, -114068.66, -117060.09, -136198.92, -148017.00, -155077.67, -131641.20, 0.00, 0.00, 0.00, 1483139273557
221, -120100.73, -113433.04, -114068.80, -117060.40, -136199.05, -148017.77, -155078.56, -131643.20, 0.00, 0.00, 0.00, 1483139273560
222, -120101.08, -113433.34, -114068.30, -117059.79, -136198.31, -148017.25, -155078.00, -131642.72, 0.00, 0.00, 0.00, 1483139273565
223, -120097.77, -113430.43, -114066.98, -117058.41, -136196.75, -148015.42, -155076.08, -131639.16, 0.00, 0.00, 0.00, 1483139273568
224, -120096.50, -113429.55, -114067.34, -117058.90, -136197.25, -148015.45, -155076.47, -131638.66, 0.00, 0.00, 0.00, 1483139273572
225, -120098.96, -113432.10, -114068.57, -117060.30, -136198.42, -148017.19, -155078.50, -131641.63, 0.00, 0.00, 0.00, 1483139273576
226, -120100.63, -113433.91, -114069.04, -117060.64, -136198.58, -148017.72, -155079.06, -131642.52, 0.00, 0.00, 0.00, 1483139273580
227, -120100.14, -113433.58, -114070.09, -117061.47, -136199.39, -148018.14, -155079.45, -131641.48, 0.00, 0.00, 0.00, 1483139273584
228, -120095.78, -113429.45, -114067.63, -117059.01, -136196.91, -148015.23, -155076.78, -131637.75, 0.01, 0.11, 1.03, 1483139273588
229, -120099.20, -113433.02, -114070.13, -117061.71, -136199.50, -148018.20, -155080.16, -131641.98, 0.00, 0.00, 0.00, 1483139273593
230, -120103.34, -113437.20, -114072.62, -117064.33, -136201.89, -148021.05, -155083.08, -131645.52, 0.00, 0.00, 0.00, 1483139273596
231, -120101.75, -113435.91, -114072.21, -117063.66, -136201.16, -148020.13, -155082.09, -131643.33, 0.00, 0.00, 0.00, 1483139273599
232, -120096.68, -113431.16, -114069.40, -117060.82, -136198.20, -148016.78, -155078.97, -131638.83, 0.00, 0.00, 0.00, 1483139273604
233, -120098.69, -113433.24, -114070.91, -117062.50, -136199.77, -148018.66, -155081.14, -131641.58, 0.00, 0.00, 0.00, 1483139273609
234, -120103.18, -113437.67, -114073.53, -117065.24, -136202.23, -148021.67, -155084.20, -131645.53, 0.00, 0.00, 0.00, 1483139273612
235, -120100.10, -113434.67, -114070.94, -117062.45, -136199.33, -148018.61, -155081.11, -131641.58, 0.00, 0.00, 0.00, 1483139273616
236, -120092.79, -113427.81, -114066.18, -117057.55, -136194.52, -148013.30, -155075.81, -131634.77, 0.00, 0.00, 0.00, 1483139273621
237, -120092.16, -113427.55, -114065.80, -117057.27, -136194.22, -148013.20, -155076.05, -131635.28, 0.00, 0.00, 0.00, 1483139273625
238, -120097.20, -113432.46, -114068.91, -117060.48, -136197.27, -148016.75, -155079.81, -131640.02, 0.01, 0.10, 1.03, 1483139273628
239, -120097.35, -113432.71, -114069.15, -117060.62, -136197.25, -148016.63, -155079.61, -131639.23, 0.00, 0.00, 0.00, 1483139273632
240, -120092.81, -113428.57, -114067.03, -117058.38, -136194.98, -148013.89, -155076.86, -131634.77, 0.00, 0.00, 0.00, 1483139273637
241, -120092.43, -113428.39, -114067.41, -117058.85, -136195.44, -148014.30, -155077.66, -131635.39, 0.00, 0.00, 0.00, 1483139273640
242, -120096.90, -113432.91, -114069.98, -117061.71, -136197.94, -148017.38, -155081.03, -131639.97, 0.00, 0.00, 0.00, 1483139273644
243, -120098.20, -113434.38, -114070.80, -117062.43, -136198.42, -148018.05, -155081.72, -131640.44, 0.00, 0.00, 0.00, 1483139273650
244, -120094.06, -113430.47, -114068.80, -117060.17, -136196.27, -148015.50, -155079.11, -131636.14, 0.00, 0.00, 0.00, 1483139273653
245, -120093.82, -113430.43, -114069.76, -117061.16, -136197.22, -148016.36, -155080.13, -131636.80, 0.00, 0.00, 0.00, 1483139273656
246, -120099.47, -113436.13, -114073.76, -117065.49, -136201.27, -148020.89, -155085.05, -131642.86, 0.00, 0.00, 0.00, 1483139273660
247, -120101.24, -113438.02, -114074.74, -117066.30, -136201.94, -148021.78, -155086.02, -131643.88, 0.00, 0.00, 0.00, 1483139273665
248, -120095.56, -113432.66, -114070.83, -117062.32, -136197.83, -148017.36, -155081.53, -131637.89, 0.01, 0.10, 1.02, 1483139273669
249, -120094.29, -113431.70, -114071.27, -117062.77, -136198.27, -148017.52, -155081.94, -131637.38, 0.00, 0.00, 0.00, 1483139273673
250, -120097.53, -113434.92, -114073.11, -117064.89, -136200.23, -148019.84, -155084.69, -131641.06, 0.00, 0.00, 0.00, 1483139273677
251, -120099.30, -113436.80, -114073.55, -117065.36, -136200.47, -148020.44, -155085.34, -131642.16, 0.00, 0.00, 0.00, 1483139273681
252, -120095.29, -113433.02, -114071.09, -117062.54, -136197.69, -148017.31, -155082.13, -131637.47, 0.00, 0.00, 0.00, 1483139273684
253, -120091.02, -113429.18, -114069.04, -117060.38, -136195.52, -148014.81, -155079.66, -131633.86, 0.00, 0.00, 0.00, 1483139273689
254, -120095.56, -113433.89, -114072.66, -117064.35, -136199.33, -148018.88, -155084.20, -131639.19, 0.00, 0.00, 0.00, 1483139273693
255, -120099.27, -113437.49, -114074.65, -117066.41, -136201.16, -148021.16, -155086.56, -131642.27, 0.00, 0.00, 0.00, 1483139273696
0, -120094.45, -113432.88, -114070.88, -117062.45, -136197.05, -148016.95, -155082.19, -131636.66, 0.00, 0.00, 0.00, 1483139273700
1, -120089.77, -113428.55, -114068.52, -117059.97, -136194.63, -148014.05, -155079.44, -131632.48, 0.00, 0.00, 0.00, 1483139273704
2, -120092.92, -113431.91, -114071.41, -117063.15, -136197.59, -148017.27, -155083.08, -131636.75, 0.01, 0.10, 1.03, 1483139273708
3, -120099.09, -113438.07, -114075.70, -117067.62, -136201.83, -148021.98, -155087.97, -131642.63, 0.00, 0.00, 0.00, 1483139273711
4, -120097.53, -113436.64, -114074.43, -117066.19, -136200.28, -148020.36, -155086.36, -131640.13, 0.00, 0.00, 0.00, 1483139273716
5, -120092.23, -113431.73, -114071.72, -117063.30, -136197.33, -148016.88, -155082.92, -131635.00, 0.00, 0.00, 0.00, 1483139273721
6, -120093.80, -113433.45, -114073.60, -117065.18, -136199.28, -148019.06, -155085.25, -131637.55, 0.00, 0.00, 0.00, 1483139273724
7, -120099.16, -113438.83, -114077.02, -117068.73, -136202.66, -148022.91, -155089.41, -131642.81, 0.00, 0.00, 0.00, 1483139273728
8, -120098.38, -113438.34, -114076.20, -117067.84, -136201.53, -148021.88, -155088.27, -131641.27, 0.00, 0.00, 0.00, 1483139273732
9, -120094.51, -113434.79, -114074.67, -117066.19, -136199.88, -148019.77, -155086.14, -131637.42, 0.00, 0.00, 0.00, 1483139273735
10, -120092.07, -113432.64, -114073.15, -117064.64, -136198.36, -148018.20, -155085.00, -131635.94, 0.00, 0.00, 0.00, 1483139273740
11, -120095.05, -113435.57, -114074.25, -117065.98, -136199.50, -148019.84, -155086.95, -131639.05, 0.00, 0.00, 0.00, 1483139273744
12, -120095.36, -113435.88, -114073.78, -117065.45, -136198.72, -148019.27, -155086.41, -131638.27, 0.01, 0.11, 1.03, 1483139273748
13, -120091.25, -113432.15, -114072.08, -117063.44, -136196.55, -148016.67, -155083.86, -131634.09, 0.00, 0.00, 0.00, 1483139273753
14, -120089.91, -113431.08, -114072.05, -117063.62, -136196.70, -148016.58, -155084.02, -131633.67, 0.00, 0.00, 0.00, 1483139273756
15, -120094.04, -113435.30, -114074.72, -117066.41, -136199.39, -148019.75, -155087.42, -131638.20, 0.00, 0.00, 0.00, 1483139273759
16, -120096.08, -113437.36, -114075.52, -117067.23, -136200.06, -148020.59, -155088.27, -131639.30, 0.00, 0.00, 0.00, 1483139273764
17, -120090.82, -113432.39, -114072.05, -117063.59, -136196.27, -148016.47, -155084.13, -131633.59, 0.00, 0.00, 0.00, 1483139273767
18, -120085.55, -113427.41, -114068.62, -117060.15, -136192.77, -148012.70, -155080.63, -131629.17, 0.00, 0.00, 0.00, 1483139273771
19, -120089.52, -113431.43, -114071.38, -117063.16, -136195.67, -148016.13, -155084.27, -131633.80, 0.00, 0.00, 0.00, 1483139273776
20, -120094.02, -113435.93, -114074.45, -117066.23, -136198.47, -148019.34, -155087.58, -131637.55, 0.00, 0.00, 0.00, 1483139273781
21, -120093.51, -113435.75, -114075.48, -117066.90, -136199.09, -148019.70, -155087.81, -131636.55, 0.00, 0.00, 0.00, 1483139273785
22, -120087.83, -113430.45, -114072.03, -117063.28, -136195.64, -148015.73, -155084.02, -131631.50, 0.00, 0.00, 0.00, 1483139273787
23, -120090.63, -113433.36, -114074.07, -117065.58, -136197.83, -148018.30, -155087.03, -131635.16, 0.01, 0.10, 1.02, 1483139273791
24, -120094.94, -113437.65, -114076.66, -117068.42, -136200.28, -148021.25, -155090.09, -131638.94, 0.00, 0.00, 0.00, 1483139273796
25, -120094.06, -113436.91, -114076.57, -117068.13, -136199.91, -148020.75, -155089.42, -131637.28, 0.00, 0.00, 0.00, 1483139273800
26, -120089.19, -113432.44, -114074.07, -117065.67, -136197.38, -148017.66, -155086.48, -131632.81, 0.00, 0.00, 0.00, 1483139273805
27, -120088.84, -113432.13, -114073.46, -117065.24, -136196.86, -148017.34, -155086.55, -131633.27, 0.00, 0.00, 0.00, 1483139273809
28, -120094.80, -113438.12, -114077.55, -117069.38, -136200.73, -148021.83, -155091.27, -131638.88, 0.00, 0.00, 0.00, 1483139273812
29, -120095.16, -113438.52, -114078.13, -117069.76, -136201.02, -148022.08, -155091.39, -131638.22, 0.00, 0.00, 0.00, 1483139273816
30, -120088.25, -113432.06, -114073.64, -117065.16, -136196.48, -148016.98, -155086.33, -131631.55, 0.00, 0.00, 0.00, 1483139273819
31, -120087.05, -113431.10, -114072.91, -117064.44, -136195.77, -148016.23, -155086.09, -131631.52, 0.00, 0.00, 0.00, 1483139273824
32, -120092.37, -113436.44, -114076.41, -117068.13, -136199.33, -148020.27, -155090.34, -131636.91, 0.00, 0.00, 0.00, 1483139273827
33, -120093.73, -113437.87, -114077.48, -117069.07, -136200.16, -148021.16, -155091.16, -131637.33, 0.01, 0.10, 1.02, 1483139273833
34, -120088.01, -113432.46, -114074.05, -117065.58, -136196.48, -148017.05, -155087.03, -131631.56, 0.00, 0.00, 0.00, 1483139273836
35, -120087.18, -113431.91, -114074.13, -117065.78, -136196.64, -148017.20, -155087.55, -131631.75, 0.00, 0.00, 0.00, 1483139273841
36, -120092.19, -113436.87, -114077.42, -117069.25, -136199.83, -148020.95, -155091.59, -131636.84, 0.00, 0.00, 0.00, 1483139273844
37, -120094.48, -113439.32, -114079.14, -117070.86, -136201.22, -148022.66, -155093.09, -131638.41, 0.00, 0.00, 0.00, 1483139273848
38, -120090.13, -113435.34, -114076.91, -117068.30, -136198.77, -148019.73, -155090.08, -131633.84, 0.00, 0.00, 0.00, 1483139273851
39, -120086.27, -113431.88, -114074.56, -117066.07, -136196.39, -148017.20, -155087.89, -131630.84, 0.00, 0.00, 0.00, 1483139273856
40, -120089.55, -113435.21, -114076.39, -117068.15, -136198.30, -148019.59, -155090.64, -131634.72, 0.00, 0.00, 0.00, 1483139273859
41, -120094.55, -113440.27, -114080.35, -117071.95, -136201.95, -148023.50, -155094.59, -131638.92, 0.00, 0.00, 0.00, 1483139273865
42, -120091.18, -113437.18, -114078.70, -117070.14, -136200.03, -148021.27, -155092.25, -131635.00, 0.00, 0.00, 0.00, 1483139273868
43, -120086.93, -113433.29, -114076.46, -117067.86, -136197.75, -148018.75, -155089.83, -131631.44, 0.00, 0.11, 1.02, 1483139273871
44, -120090.98, -113437.38, -114079.26, -117070.86, -136200.70, -148022.03, -155093.52, -131635.98, 0.00, 0.00, 0.00, 1483139273875
45, -120092.77, -113439.08, -114079.41, -117071.08, -136200.58, -148022.39, -155093.98, -131637.05, 0.00, 0.00, 0.00, 1483139273879
46, -120090.02, -113436.46, -114077.91, -117069.42, -136198.86, -148020.31, -155091.84, -131633.69, 0.00, 0.00, 0.00, 1483139273884
47, -120084.79, -113431.61, -114074.96, -117066.45, -136195.81, -148016.88, -155088.53, -131629.06, 0.00, 0.00, 0.00, 1483139273888
48, -120087.38, -113434.52, -114077.06, -117068.69, -136197.98, -148019.42, -155091.44, -131632.61, 0.00, 0.00, 0.00, 1483139273893
49, -120092.81, -113439.84, -114080.59, -117072.35, -136201.47, -148023.33, -155095.52, -131637.59, 0.00, 0.00, 0.00, 1483139273897
50, -120091.02, -113438.25, -114079.57, -117071.13, -136200.11, -148021.78, -155093.92, -131635.05, 0.00, 0.00, 0.00, 1483139273899
51, -120085.39, -113432.98, -114076.39, -117067.80, -136196.80, -148018.05, -155090.28, -131629.80, 0.00, 0.00, 0.00, 1483139273904
52, -120085.03, -113432.73, -114076.02, -117067.44, -136196.38, -148017.83, -155090.48, -131630.41, 0.00, 0.00, 0.00, 1483139273908
53, -120090.35, -113438.05, -114079.27, -117070.90, -136199.64, -148021.56, -155094.44, -131635.59, 0.00, 0.11, 1.03, 1483139273912
54, -120090.17, -113438.16, -114079.43, -117070.88, -136199.39, -148021.41, -155094.09, -131634.58, 0.00, 0.00, 0.00, 1483139273915
55, -120086.33, -113434.65, -114078.09, -117069.34, -136197.83, -148019.38, -155092.14, -131630.77, 0.00, 0.00, 0.00, 1483139273920
56, -120086.24, -113434.72, -114078.43, -117069.96, -136198.39, -148019.89, -155093.09, -131631.75, 0.00, 0.00, 0.00, 1483139273924
57, -120091.45, -113439.95, -114081.76, -117073.38, -136201.58, -148023.63, -155097.09, -131636.77, 0.00, 0.00, 0.00, 1483139273928
58, -120092.21, -113440.93, -114082.23, -117073.83, -136201.78, -148024.00, -155097.16, -131636.75, 0.00, 0.00, 0.00, 1483139273931
59, -120084.72, -113433.73, -114076.88, -117068.40, -136196.38, -148018.00, -155091.16, -131629.13, 0.00, 0.00, 0.00, 1483139273936
60, -120081.79, -113430.90, -114075.01, -117066.52, -136194.52, -148015.95, -155089.58, -131627.11, 0.00, 0.00, 0.00, 1483139273939
61, -120086.89, -113436.04, -114078.36, -117070.07, -136197.83, -148019.86, -155093.86, -131632.48, 0.00, 0.00, 0.00, 1483139273944
62, -120089.44, -113438.67, -114080.10, -117071.77, -136199.36, -148021.58, -155095.55, -131634.16, 0.00, 0.00, 0.00, 1483139273948
63, -120082.75, -113432.38, -114075.50, -117066.97, -136194.52, -148016.31, -155090.28, -131627.19, 0.01, 0.11, 1.03, 1483139273953
64, -120079.78, -113429.76, -114074.25, -117065.72, -136193.17, -148014.88, -155089.11, -131625.13, 0.00, 0.00, 0.00, 1483139273956
65, -120084.34, -113434.25, -114077.31, -117069.05, -136196.27, -148018.44, -155092.98, -131630.11, 0.00, 0.00, 0.00, 1483139273960
66, -120086.28, -113436.24, -114077.98, -117069.74, -136196.80, -148019.22, -155093.75, -131631.19, 0.00, 0.00, 0.00, 1483139273964
67, -120083.54, -113433.80, -114076.91, -117068.53, -136195.50, -148017.61, -155092.11, -131628.09, 0.00, 0.00, 0.00, 1483139273968
68, -120080.97, -113431.48, -114076.37, -117067.86, -136195.02, -148016.64, -155091.42, -131626.25, 0.00, 0.00, 0.00, 1483139273971
69, -120086.04, -113436.58, -114080.46, -117072.06, -136199.09, -148021.27, -155096.33, -131632.08, 0.00, 0.00, 0.00, 1483139273976
70, -120088.45, -113439.05, -114081.31, -117072.98, -136199.80, -148022.34, -155097.45, -131633.83, 0.00, 0.00, 0.00, 1483139273980
71, -120085.41, -113436.41, -114079.48, -117070.99, -136197.59, -148019.89, -155094.92, -131630.06, 0.00, 0.00, 0.00, 1483139273984
72, -120081.44, -113432.87, -114077.82, -117069.34, -136195.88, -148017.77, -155092.88, -131626.67, 0.00, 0.00, 0.00, 1483139273988
73, -120081.88, -113433.36, -114077.69, -117069.47, -136195.91, -148018.03, -155093.50, -131627.94, 0.01, 0.11, 1.02, 1483139273991
74, -120085.41, -113436.91, -114079.39, -117071.23, -136197.48, -148020.11, -155095.73, -131630.94, 0.00, 0.00, 0.00, 1483139273996
75, -120085.75, -113437.34, -114080.26, -117071.99, -136198.09, -148020.56, -155096.22, -131630.41, 0.00, 0.00, 0.00, 1483139274000
76, -120083.47, -113435.28, -114080.39, -117071.98, -136198.03, -148020.06, -155095.75, -131628.44, 0.00, 0.00, 0.00, 1483139274005
77, -120084.23, -113436.26, -114081.27, -117073.02, -136198.97, -148021.14, -155097.23, -131630.30, 0.00, 0.00, 0.00, 1483139274007
78, -120087.63, -113439.70, -114082.79, -117074.66, -136200.34, -148023.11, -155099.39, -131633.55, 0.00, 0.00, 0.00, 1483139274011
79, -120087.25, -113439.50, -114082.47, -117074.16, -136199.61, -148022.45, -155098.77, -131632.30, 0.00, 0.00, 0.00, 1483139274016
80, -120082.53, -113435.16, -114080.20, -117071.70, -136197.16, -148019.50, -155095.78, -131627.77, 0.00, 0.00, 0.00, 1483139274020
81, -120080.63, -113433.40, -114078.92, -117070.43, -136196.03, -148018.20, -155094.92, -131626.80, 0.00, 0.00, 0.00, 1483139274024
82, -120085.62, -113438.43, -114082.09, -117073.77, -136199.14, -148021.94, -155098.89, -131631.86, 0.00, 0.00, 0.00, 1483139274027
83, -120085.23, -113438.20, -114081.27, -117072.96, -136198.05, -148021.09, -155097.91, -131630.63, 0.00, 0.11, 1.02, 1483139274033
84, -120080.59, -113433.87, -114078.83, -117070.30, -136195.41, -148017.92, -155094.77, -131625.78, 0.00, 0.00, 0.00, 1483139274036
85, -120079.71, -113433.45, -114079.32, -117070.81, -136196.02, -148018.25, -155095.36, -131625.91, 0.00, 0.00, 0.00, 1483139274038
86, -120085.37, -113439.15, -114083.32, -117075.10, -136200.00, -148022.77, -155100.25, -131631.78, 0.00, 0.00, 0.00, 1483139274043
87, -120086.62, -113440.44, -114083.59, -117075.37, -136200.06, -148023.17, -155100.50, -131632.17, 0.00, 0.00, 0.00, 1483139274048
88, -120082.64, -113436.80, -114081.66, -117073.18, -136197.84, -148020.58, -155097.70, -131627.83, 0.00, 0.00, 0.00, 1483139274052
89, -120079.69, -113434.18, -114080.46, -117071.98, -136196.59, -148018.98, -155096.48, -131625.80, 0.00, 0.00, 0.00, 1483139274056
90, -120083.49, -113438.02, -114082.88, -117074.66, -136199.05, -148022.02, -155099.75, -131630.16, 0.00, 0.00, 0.00, 1483139274061
91, -120087.52, -113441.96, -114085.55, -117077.18, -136201.44, -148024.75, -155102.59, -131633.27, 0.00, 0.00, 0.00, 1483139274063
92, -120083.67, -113438.34, -114083.16, -117074.56, -136198.89, -148021.77, -155099.64, -131628.86, 0.00, 0.00, 0.00, 1483139274068
93, -120079.96, -113435.08, -114081.69, -117073.09, -136197.33, -148019.80, -155097.83, -131625.94, 0.01, 0.10, 1.02, 1483139274072
94, -120082.06, -113437.31, -114082.83, -117074.55, -136198.55, -148021.38, -155099.91, -131628.77, 0.00, 0.00, 0.00, 1483139274076
95, -120087.36, -113442.50, -114086.30, -117078.12, -136201.92, -148025.19, -155103.91, -131633.38, 0.00, 0.00, 0.00, 1483139274079
96, -120085.32, -113440.73, -114085.36, -117077.00, -136200.59, -148023.70, -155102.45, -131630.73, 0.00, 0.00, 0.00, 1483139274084
97, -120081.57, -113437.27, -114083.91, -117075.39, -136199.09, -148021.66, -155100.56, -131627.47, 0.00, 0.00, 0.00, 1483139274088
98, -120082.09, -113437.89, -114083.95, -117075.70, -136199.25, -148022.09, -155101.39, -131628.84, 0.00, 0.00, 0.00, 1483139274091
99, -120086.17, -113442.01, -114086.23, -117078.08, -136201.36, -148024.73, -155104.05, -131632.50, 0.00, 0.00, 0.00, 1483139274095
100, -120085.64, -113441.56, -114086.12, -117077.77, -136201.00, -148024.33, -155103.53, -131631.11, 0.00, 0.00, 0.00, 1483139274100
101, -120080.92, -113437.31, -114083.86, -117075.33, -136198.58, -148021.58, -155100.69, -131626.67, 0.00, 0.00, 0.00, 1483139274104
102, -120082.24, -113438.88, -114085.47, -117077.09, -136200.22, -148023.39, -155102.91, -131629.02, 0.00, 0.00, 0.00, 1483139274108
103, -120087.49, -113444.06, -114088.80, -117080.60, -136203.55, -148027.17, -155107.02, -131633.98, 0.00, 0.11, 1.02, 1483139274112
104, -120087.49, -113444.29, -114088.89, -117080.55, -136203.25, -148026.95, -155106.70, -131633.16, 0.00, 0.00, 0.00, 1483139274116
105, -120080.27, -113437.52, -114084.13, -117075.69, -136198.36, -148021.50, -155101.25, -131626.11, 0.00, 0.00, 0.00, 1483139274119
106, -120078.53, -113435.97, -114083.05, -117074.86, -136197.47, -148020.64, -155100.66, -131625.23, 0.00, 0.00, 0.00, 1483139274123
107, -120082.13, -113439.62, -114084.80, -117076.78, -136199.20, -148022.91, -155103.13, -131628.95, 0.00, 0.00, 0.00, 1483139274128
108, -120084.81, -113442.41, -114087.03, -117078.73, -136201.06, -148024.89, -155105.17, -131630.80, 0.00, 0.00, 0.00, 1483139274132
109, -120079.40, -113437.31, -114083.81, -117075.26, -136197.53, -148020.98, -155101.23, -131625.19, 0.00, 0.00, 0.00, 1483139274136
110, -120077.34, -113435.55, -114082.95, -117074.61, -136196.75, -148020.09, -155100.63, -131623.98, 0.00, 0.00, 0.00, 1483139274141
111, -120082.87, -113441.00, -114086.90, -117078.84, -136200.84, -148024.58, -155105.44, -131629.91, 0.00, 0.00, 0.00, 1483139274143
112, -120085.88, -113444.04, -114088.93, -117080.69, -136202.52, -148026.59, -155107.56, -131632.19, 0.00, 0.00, 0.00, 1483139274147
113, -120081.79, -113440.27, -114086.63, -117078.19, -136199.97, -148023.55, -155104.52, -131627.77, 0.00, 0.11, 1.03, 1483139274151
114, -120078.62, -113437.31, -114085.13, -117076.78, -136198.58, -148021.83, -155103.02, -131625.33, 0.00, 0.00, 0.00, 1483139274156
115, -120081.37, -113440.11, -114086.70, -117078.59, -136200.22, -148023.91, -155105.50, -131628.69, 0.00, 0.00, 0.00, 1483139274161
116, -120083.05, -113441.85, -114087.13, -117078.81, -136200.22, -148024.41, -155105.98, -131629.69, 0.00, 0.00, 0.00, 1483139274164
117, -120079.42, -113438.54, -114084.88, -117076.45, -136197.78, -148021.56, -155103.05, -131625.48, 0.00, 0.00, 0.00, 1483139274168
118, -120075.47, -113434.97, -114083.16, -117074.63, -136195.95, -148019.42, -155101.03, -131622.13, 0.00, 0.00, 0.00, 1483139274172
119, -120081.14, -113440.77, -114088.13, -117079.69, -136200.95, -148024.80, -155106.80, -131628.55, 0.00, 0.00, 0.00, 1483139274175
120, -120085.55, -113445.13, -114090.84, -117082.44, -136203.53, -148027.78, -155109.81, -131632.34, 0.00, 0.00, 0.00, 1483139274179
121, -120084.99, -113444.80, -114091.05, -117082.55, -136203.53, -148027.53, -155109.50, -131631.03, 0.00, 0.00, 0.00, 1483139274183
122, -120079.67, -113439.93, -114088.13, -117079.57, -136200.53, -148024.02, -155106.14, -131626.05, 0.00, 0.00, 0.00, 1483139274188
123, -120080.34, -113440.76, -114088.64, -117080.22, -136201.06, -148024.78, -155107.36, -131627.66, 0.00, 0.10, 1.03, 1483139274192
124, -120085.13, -113445.47, -114091.52, -117083.26, -136203.97, -148028.16, -155110.91, -131632.23, 0.00, 0.00, 0.00, 1483139274197
125, -120082.75, -113443.23, -114089.49, -117081.05, -136201.56, -148025.81, -155108.47, -131629.02, 0.00, 0.00, 0.00, 1483139274199
126, -120077.61, -113438.52, -114086.85, -117078.21, -136198.70, -148022.52, -155105.19, -131624.02, 0.00, 0.00, 0.00, 1483139274203
127, -120076.30, -113437.36, -114085.87, -117077.41, -136197.78, -148021.72, -155104.67, -131623.73, 0.00, 0.00, 0.00, 1483139274208
128, -120082.10, -113443.15, -114089.65, -117081.36, -136201.53, -148026.02, -155109.33, -131629.42, 0.00, 0.00, 0.00, 1483139274212
129, -120083.55, -113444.84, -114091.01, -117082.61, -136202.56, -148027.08, -155110.31, -131630.06, 0.00, 0.00, 0.00, 1483139274216
130, -120074.91, -113436.51, -114084.71, -117076.13, -136196.02, -148020.05, -155103.28, -131621.47, 0.00, 0.00, 0.00, 1483139274220
131, -120072.20, -113434.07, -114082.98, -117074.55, -136194.36, -148018.39, -155101.86, -131619.77, 0.00, 0.00, 0.00, 1483139274224
132, -120079.05, -113440.93, -114088.04, -117079.93, -136199.55, -148024.00, -155107.80, -131626.88, 0.00, 0.00, 0.00, 1483139274227
133, -120082.15, -113443.98, -114090.32, -117082.14, -136201.52, -148026.25, -155109.97, -131629.02, 0.00, 0.11, 1.03, 1483139274231
134, -120079.38, -113441.52, -114089.65, -117081.20, -136200.63, -148024.98, -155108.67, -131625.95, 0.00, 0.00, 0.00, 1483139274236
135, -120074.62, -113437.11, -114086.45, -117078.08, -136197.47, -148021.56, -155105.50, -131622.13, 0.00, 0.00, 0.00, 1483139274239
136, -120078.75, -113441.24, -114089.06, -117080.89, -136200.03, -148024.63, -155108.94, -131626.72, 0.00, 0.00, 0.00, 1483139274244
137, -120081.44, -113444.06, -114090.61, -117082.37, -136201.36, -148026.19, -155110.63, -131628.56, 0.00, 0.00, 0.00, 1483139274249
138, -120077.79, -113440.82, -114088.80, -117080.31, -136199.33, -148023.73, -155108.09, -131624.45, 0.00, 0.00, 0.00, 1483139274252
139, -120074.26, -113437.58, -114087.19, -117078.77, -136197.69, -148021.89, -155106.44, -131621.73, 0.00, 0.00, 0.00, 1483139274256
140, -120076.67, -113439.97, -114088.48, -117080.24, -136199.03, -148023.78, -155108.67, -131624.81, 0.00, 0.00, 0.00, 1483139274259
141, -120081.93, -113445.27, -114092.22, -117083.95, -136202.52, -148027.64, -155112.58, -131629.33, 0.00, 0.00, 0.00, 1483139274263
142, -120077.77, -113441.45, -114089.42, -117080.94, -136199.45, -148024.28, -155109.03, -131624.64, 0.00, 0.00, 0.00, 1483139274267
143, -120073.88, -113437.91, -114087.68, -117079.26, -136197.69, -148022.13, -155107.16, -131621.33, 0.00, 0.10, 1.03, 1483139274271
144, -120075.58, -113439.81, -114088.73, -117080.53, -136198.72, -148023.53, -155108.98, -131623.77, 0.00, 0.00, 0.00, 1483139274276
145, -120078.77, -113443.01, -114090.19, -117081.98, -136200.00, -148025.27, -155110.73, -131626.38, 0.00, 0.00, 0.00, 1483139274280
146, -120077.39, -113441.72, -114089.54, -117081.09, -136198.98, -148024.09, -155109.52, -131624.19, 0.00, 0.00, 0.00, 1483139274283
147, -120073.26, -113437.96, -114087.79, -117079.33, -136197.22, -148021.86, -155107.31, -131620.61, 0.00, 0.00, 0.00, 1483139274287
148, -120074.38, -113439.26, -114088.80, -117080.53, -136198.39, -148023.06, -155109.05, -131622.75, 0.00, 0.00, 0.00, 1483139274291
149, -120078.69, -113443.62, -114091.28, -117083.09, -136200.70, -148025.94, -155112.08, -131626.83, 0.00, 0.00, 0.00, 1483139274297
150, -120080.54, -113445.63, -114093.34, -117085.07, -136202.58, -148027.84, -155113.86, -131627.86, 0.00, 0.00, 0.00, 1483139274300
151, -120074.33, -113439.68, -114089.54, -117081.12, -136198.61, -148023.34, -155109.41, -131621.80, 0.00, 0.00, 0.00, 1483139274304
152, -120073.26, -113438.81, -114088.93, -117080.60, -136197.95, -148022.83, -155109.23, -131621.64, 0.00, 0.00, 0.00, 1483139274307
153, -120079.52, -113445.09, -114093.34, -117085.12, -136202.36, -148027.78, -155114.44, -131627.83, 0.00, 0.10, 1.03, 1483139274311
154, -120080.41, -113446.19, -114093.94, -117085.67, -136202.73, -148028.16, -155114.86, -131627.91, 0.00, 0.00, 0.00, 1483139274315
155, -120072.88, -113438.95, -114088.87, -117080.34, -136197.38, -148022.25, -155108.92, -131620.34, 0.00, 0.00, 0.00, 1483139274320
156, -120069.59, -113435.99, -114086.66, -117078.21, -136195.23, -148019.97, -155106.91, -131618.06, 0.00, 0.00, 0.00, 1483139274323
157, -120075.78, -113442.19, -114090.99, -117082.81, -136199.66, -148024.98, -155112.23, -131624.36, 0.00, 0.00, 0.00, 1483139274327
158, -120079.63, -113446.16, -114094.09, -117085.90, -136202.56, -148028.09, -155115.22, -131627.34, 0.00, 0.00, 0.00, 1483139274332
159, -120075.04, -113441.83, -114091.62, -117083.13, -136199.72, -148024.75, -155111.89, -131622.38, 0.00, 0.00, 0.00, 1483139274336
160, -120071.38, -113438.48, -114089.54, -117081.07, -136197.69, -148022.45, -155109.80, -131619.50, 0.00, 0.00, 0.00, 1483139274339
161, -120077.03, -113444.09, -114093.72, -117085.52, -136201.95, -148027.23, -155114.89, -131625.64, 0.00, 0.00, 0.00, 1483139274343
162, -120080.66, -113447.68, -114096.13, -117087.89, -136204.02, -148029.72, -155117.39, -131628.41, 0.00, 0.00, 0.00, 1483139274347
163, -120075.55, -113442.95, -114092.66, -117084.29, -136200.38, -148025.72, -155113.33, -131623.00, 0.01, 0.11, 1.03, 1483139274351
164, -120071.89, -113439.62, -114091.05, -117082.66, -136198.77, -148023.66, -155111.53, -131620.13, 0.00, 0.00, 0.00, 1483139274356
165, -120075.34, -113443.05, -114093.41, -117085.18, -136201.16, -148026.48, -155114.75, -131624.19, 0.00, 0.00, 0.00, 1483139274360
166, -120078.98, -113446.74, -114095.41, -117087.27, -136202.89, -148028.78, -155117.17, -131627.11, 0.00, 0.00, 0.00, 1483139274364
167, -120076.27, -113444.27, -114093.85, -117085.61, -136201.11, -148026.72, -155115.05, -131623.67, 0.00, 0.00, 0.00, 1483139274368
168, -120072.31, -113440.55, -114092.11, -117083.71, -136199.28, -148024.47, -155112.89, -131620.17, 0.00, 0.00, 0.00, 1483139274372
169, -120074.62, -113442.95, -114093.85, -117085.61, -136201.17, -148026.66, -155115.38, -131623.36, 0.00, 0.00, 0.00, 1483139274376
170, -120080.85, -113449.23, -114098.27, -117090.15, -136205.52, -148031.48, -155120.34, -131629.16, 0.00, 0.00, 0.00, 1483139274380
171, -120079.13, -113447.70, -114097.23, -117088.89, -136204.11, -148029.86, -155118.69, -131626.53, 0.00, 0.00, 0.00, 1483139274383
172, -120073.63, -113442.63, -114094.23, -117085.77, -136200.95, -148026.33, -155115.11, -131621.42, 0.00, 0.00, 0.00, 1483139274388
173, -120073.84, -113443.05, -114094.50, -117086.21, -136201.31, -148026.81, -155116.05, -131622.72, 0.00, 0.00, 0.00, 1483139274391
174, -120077.61, -113446.88, -114096.45, -117088.29, -136203.14, -148029.05, -155118.58, -131626.31, 0.01, 0.11, 1.03, 1483139274394
175, -120077.41, -113446.81, -114096.38, -117088.09, -136202.83, -148028.73, -155118.17, -131625.19, 0.00, 0.00, 0.00, 1483139274400
176, -120071.94, -113441.72, -114093.27, -117084.87, -136199.55, -148025.14, -155114.53, -131619.81, 0.00, 0.00, 0.00, 1483139274404
177, -120070.57, -113440.55, -114092.55, -117084.29, -136198.83, -148024.52, -155114.22, -131619.41, 0.00, 0.00, 0.00, 1483139274408
178, -120077.34, -113447.44, -114097.59, -117089.45, -136203.75, -148029.97, -155120.00, -131626.31, 0.00, 0.00, 0.00, 1483139274412
179, -120078.59, -113448.82, -114098.48, -117090.21, -136204.38, -148030.61, -155120.61, -131626.58, 0.00, 0.00, 0.00, 1483139274416
180, -120071.71, -113442.30, -114093.88, -117085.38, -136199.50, -148025.41, -155115.31, -131619.63, 0.00, 0.00, 0.00, 1483139274420
181, -120070.30, -113441.13, -114093.52, -117085.23, -136199.30, -148025.03, -155115.27, -131619.16, 0.00, 0.00, 0.00, 1483139274423
182, -120075.80, -113446.70, -114097.41, -117089.20, -136203.19, -148029.39, -155119.97, -131624.92, 0.00, 0.00, 0.00, 1483139274428
183, -120078.28, -113449.25, -114098.88, -117090.62, -136204.42, -148030.92, -155121.41, -131626.36, 0.00, 0.00, 0.00, 1483139274432
184, -120072.27, -113443.50, -114094.85, -117086.48, -136200.13, -148026.20, -155116.66, -131620.03, 0.01, 0.11, 1.03, 1483139274435
185, -120069.43, -113440.84, -114093.67, -117085.41, -136199.05, -148024.89, -155115.48, -131618.17, 0.00, 0.00, 0.00, 1483139274439
186, -120073.32, -113444.84, -114096.35, -117088.18, -136201.69, -148028.00, -155119.00, -131622.63, 0.00, 0.00, 0.00, 1483139274445
187, -120077.27, -113448.78, -114098.99, -117090.80, -136203.95, -148030.59, -155121.66, -131625.64, 0.00, 0.00, 0.00, 1483139274447
188, -120072.67, -113444.40, -114095.75, -117087.44, -136200.50, -148026.84, -155117.84, -131620.45, 0.00, 0.00, 0.00, 1483139274451
189, -120069.79, -113441.83, -114094.90, -117086.62, -136199.61, -148025.58, -155116.83, -131618.41, 0.00, 0.00, 0.00, 1483139274456
190, -120073.86, -113445.98, -114097.98, -117089.92, -136202.89, -148029.20, -155120.86, -131623.30, 0.00, 0.00, 0.00, 1483139274460
191, -120077.84, -113450.05, -114100.29, -117092.27, -136204.98, -148031.84, -155123.56, -131626.69, 0.00, 0.00, 0.00, 1483139274464
192, -120075.27, -113447.64, -114098.66, -117090.48, -136203.09, -148029.83, -155121.38, -131623.31, 0.00, 0.00, 0.00, 1483139274467
193, -120068.18, -113441.07, -114094.09, -117085.67, -136198.47, -148024.69, -155116.36, -131616.88, 0.00, 0.00, 0.00, 1483139274473
194, -120068.80, -113441.85, -114094.50, -117086.19, -136198.92, -148025.30, -155117.45, -131618.52, 0.01, 0.11, 1.03, 1483139274476
195, -120073.34, -113446.21, -114097.02, -117088.89, -136201.28, -148028.22, -155120.41, -131622.44, 0.00, 0.00, 0.00, 1483139274478
196, -120072.65, -113445.76, -114096.82, -117088.54, -136200.84, -148027.66, -155119.77, -131620.97, 0.00, 0.00, 0.00, 1483139274483
197, -120068.94, -113442.54, -114095.68, -117087.22, -136199.50, -148025.92, -155118.16, -131617.61, 0.00, 0.00, 0.00, 1483139274488
198, -120068.85, -113442.56, -114095.75, -117087.62, -136199.61, -148026.19, -155118.73, -131618.42, 0.00, 0.00, 0.00, 1483139274492
199, -120071.76, -113445.41, -114096.76, -117088.76, -136200.58, -148027.63, -155120.36, -131621.06, 0.00, 0.00, 0.00, 1483139274495
200, -120072.63, -113446.52, -114097.65, -117089.48, -136201.27, -148028.31, -155120.98, -131621.13, 0.00, 0.00, 0.00, 1483139274499
201, -120067.35, -113441.67, -114094.95, -117086.46, -136198.25, -148024.92, -155117.55, -131615.98, 0.00, 0.00, 0.00, 1483139274502
202, -120065.50, -113440.02, -114093.78, -117085.41, -136197.09, -148023.78, -155116.72, -131615.09, 0.00, 0.00, 0.00, 1483139274506
203, -120070.48, -113444.94, -114096.87, -117088.63, -136200.17, -148027.31, -155120.59, -131620.19, 0.00, 0.00, 0.00, 1483139274512
204, -120072.07, -113446.59, -114097.96, -117089.59, -136201.00, -148028.25, -155121.45, -131620.88, 0.01, 0.11, 1.04, 1483139274516
205, -120066.68, -113441.52, -114094.84, -117086.08, -136197.56, -148024.38, -155117.55, -131615.30, 0.00, 0.00, 0.00, 1483139274519
206, -120065.19, -113440.28, -114094.52, -117086.08, -136197.41, -148024.02, -155117.61, -131614.67, 0.00, 0.00, 0.00, 1483139274523
207, -120070.10, -113445.25, -114097.88, -117089.70, -136200.81, -148027.91, -155121.92, -131619.97, 0.00, 0.00, 0.00, 1483139274527
208, -120074.39, -113449.49, -114101.20, -117092.88, -136203.75, -148031.11, -155125.14, -131623.41, 0.00, 0.00, 0.00, 1483139274530
209, -120070.28, -113445.74, -114098.92, -117090.39, -136201.22, -148028.27, -155122.11, -131619.06, 0.00, 0.00, 0.00, 1483139274534
210, -120065.79, -113441.63, -114096.17, -117087.71, -136198.61, -148025.30, -155119.45, -131615.30, 0.00, 0.00, 0.00, 1483139274538
211, -120068.52, -113444.51, -114097.65, -117089.52, -136200.22, -148027.33, -155121.84, -131618.56, 0.00, 0.00, 0.00, 1483139274544
212, -120072.61, -113448.64, -114100.35, -117092.09, -136202.63, -148030.17, -155124.66, -131621.91, 0.00, 0.00, 0.00, 1483139274548
213, -120068.38, -113444.58, -114097.49, -117088.94, -136199.44, -148026.75, -155121.13, -131616.95, 0.00, 0.00, 0.00, 1483139274552
214, -120063.09, -113439.62, -114094.43, -117085.79, -136196.28, -148023.08, -155117.70, -131612.34, 0.00, 0.11, 1.04, 1483139274554
215, -120066.50, -113443.10, -114097.02, -117088.73, -136198.98, -148026.14, -155121.17, -131616.59, 0.00, 0.00, 0.00, 1483139274558
216, -120072.54, -113449.13, -114101.31, -117093.14, -136203.17, -148030.81, -155125.86, -131622.06, 0.00, 0.00, 0.00, 1483139274563
217, -120071.20, -113447.99, -114100.84, -117092.49, -136202.52, -148029.98, -155124.88, -131620.05, 0.00, 0.00, 0.00, 1483139274566
218, -120067.51, -113444.69, -114099.64, -117091.09, -136201.05, -148028.09, -155123.09, -131616.83, 0.00, 0.00, 0.00, 1483139274571
219, -120069.19, -113446.56, -114100.96, -117092.72, -136202.52, -148029.72, -155125.28, -131619.34, 0.00, 0.00, 0.00, 1483139274576
220, -120072.98, -113450.25, -114102.73, -117094.66, -136204.17, -148031.98, -155127.66, -131622.73, 0.00, 0.00, 0.00, 1483139274580
221, -120070.98, -113448.45, -114101.20, -117092.98, -136202.41, -148030.14, -155125.70, -131619.94, 0.00, 0.00, 0.00, 1483139274583
222, -120064.54, -113442.37, -114097.34, -117088.91, -136198.30, -148025.52, -155121.14, -131613.81, 0.00, 0.00, 0.00, 1483139274587
223, -120065.01, -113443.13, -114098.19, -117089.88, -136199.17, -148026.41, -155122.48, -131615.36, 0.00, 0.00, 0.00, 1483139274590
224, -120069.68, -113447.75, -114100.87, -117092.83, -136201.95, -148029.67, -155126.05, -131619.88, 0.00, 0.10, 1.03, 1483139274595
225, -120069.12, -113447.33, -114100.27, -117092.00, -136201.06, -148028.78, -155125.13, -131618.48, 0.00, 0.00, 0.00, 1483139274599
226, -120063.82, -113442.34, -114097.31, -117088.83, -136197.88, -148025.19, -155121.50, -131613.19, 0.00, 0.00, 0.00, 1483139274604
227, -120061.97, -113440.71, -114096.20, -117087.84, -136196.81, -148024.17, -155120.75, -131612.14, 0.00, 0.00, 0.00, 1483139274608
228, -120069.14, -113448.09, -114101.77, -117093.45, -136202.27, -148030.23, -155127.03, -131619.45, 0.00, 0.00, 0.00, 1483139274610
229, -120069.86, -113448.82, -114101.80, -117093.38, -136201.98, -148030.09, -155126.84, -131619.14, 0.00, 0.00, 0.00, 1483139274614
230, -120063.58, -113442.77, -114097.59, -117089.14, -136197.67, -148025.25, -155121.75, -131612.52, 0.00, 0.00, 0.00, 1483139274619
231, -120061.54, -113441.09, -114097.00, -117088.65, -136197.02, -148024.48, -155121.30, -131611.41, 0.00, 0.00, 0.00, 1483139274623
232, -120066.57, -113446.27, -114100.60, -117092.49, -136200.69, -148028.61, -155125.80, -131617.02, 0.00, 0.00, 0.00, 1483139274626
233, -120069.12, -113448.89, -114101.98, -117093.88, -136201.88, -148030.09, -155127.34, -131618.73, 0.00, 0.00, 0.00, 1483139274631
234, -120065.95, -113445.98, -114100.48, -117092.16, -136200.16, -148028.05, -155125.08, -131615.14, 0.01, 0.11, 1.03, 1483139274635
235, -120060.85, -113441.23, -114097.18, -117088.78, -136196.81, -148024.36, -155121.59, -131610.83, 0.00, 0.00, 0.00, 1483139274639
236, -120065.81, -113446.12, -114100.89, -117092.63, -136200.48, -148028.56, -155126.22, -131616.39, 0.00, 0.00, 0.00, 1483139274643
237, -120069.50, -113449.72, -114102.97, -117094.82, -136202.39, -148030.81, -155128.70, -131619.25, 0.00, 0.00, 0.00, 1483139274647
238, -120065.56, -113446.09, -114100.31, -117091.91, -136199.48, -148027.53, -155125.38, -131614.63, 0.00, 0.00, 0.00, 1483139274651
239, -120060.80, -113441.73, -114097.78, -117089.23, -136196.86, -148024.48, -155122.53, -131610.48, 0.00, 0.00, 0.00, 1483139274655
240, -120063.77, -113444.71, -114099.88, -117091.64, -136199.09, -148027.13, -155125.48, -131614.08, 0.00, 0.00, 0.00, 1483139274660
241, -120070.08, -113451.02, -114104.40, -117096.27, -136203.48, -148032.02, -155130.41, -131619.81, 0.00, 0.00, 0.00, 1483139274663
242, -120069.72, -113450.90, -114104.94, -117096.63, -136203.66, -148032.05, -155130.22, -131618.67, 0.00, 0.00, 0.00, 1483139274667
243, -120063.87, -113445.52, -114101.52, -117093.09, -136200.00, -148028.02, -155126.28, -131613.08, 0.00, 0.00, 0.00, 1483139274671
244, -120065.32, -113447.05, -114102.81, -117094.51, -136201.27, -148029.55, -155128.08, -131615.30, 0.01, 0.12, 1.03, 1483139274676
245, -120071.04, -113452.73, -114106.70, -117098.44, -136205.06, -148033.83, -155132.64, -131620.72, 0.00, 0.00, 0.00, 1483139274678
246, -120069.21, -113451.10, -114105.23, -117096.72, -136203.19, -148031.94, -155130.64, -131617.92, 0.00, 0.00, 0.00, 1483139274683
247, -120062.77, -113445.09, -114101.25, -117092.58, -136199.17, -148027.34, -155126.13, -131611.81, 0.00, 0.00, 0.00, 1483139274688
248, -120061.56, -113444.20, -114100.45, -117092.09, -136198.61, -148026.75, -155125.89, -131611.58, 0.00, 0.00, 0.00, 1483139274692
249, -120068.49, -113450.99, -114105.43, -117097.19, -136203.50, -148032.27, -155131.61, -131618.41, 0.00, 0.00, 0.00, 1483139274695
250, -120069.59, -113452.17, -114106.26, -117097.92, -136203.97, -148032.83, -155132.14, -131618.56, 0.00, 0.00, 0.00, 1483139274699
251, -120065.38, -113448.29, -114104.27, -117095.84, -136201.83, -148030.14, -155129.44, -131614.28, 0.00, 0.00, 0.00, 1483139274703
252, -120062.99, -113446.19, -114102.95, -117094.59, -136200.47, -148028.72, -155128.34, -131612.81, 0.00, 0.00, 0.00, 1483139274706
253, -120067.27, -113450.48, -114105.45, -117097.16, -136202.97, -148031.75, -155131.66, -131617.19, 0.00, 0.00, 0.00, 1483139274711
254, -120070.84, -113453.98, -114108.09, -117099.73, -136205.41, -148034.34, -155134.27, -131619.83, 0.01, 0.11, 1.03, 1483139274717
255, -120064.47, -113447.99, -114103.75, -117095.11, -136200.78, -148029.31, -155129.17, -131613.19, 0.00, 0.00, 0.00, 1483139274720
0, -120061.03, -113444.91, -114101.72, -117093.38, -136198.88, -148027.23, -155127.34, -131610.64, 0.00, 0.00, 0.00, 1483139274724
1, -120065.09, -113448.96, -114104.35, -117096.13, -136201.48, -148030.44, -155130.67, -131615.09, 0.00, 0.00, 0.00, 1483139274726
2, -120069.01, -113452.91, -114107.26, -117098.93, -136204.08, -148033.28, -155133.58, -131618.27, 0.00, 0.00, 0.00, 1483139274731
3, -120064.09, -113448.27, -114104.02, -117095.47, -136200.59, -148029.41, -155129.66, -131612.91, 0.00, 0.00, 0.00, 1483139274735
4, -120059.75, -113444.35, -114101.61, -117093.05, -136198.20, -148026.69, -155127.06, -131609.23, 0.00, 0.00, 0.00, 1483139274739
5, -120063.51, -113448.29, -114104.45, -117096.05, -136201.05, -148029.94, -155130.73, -131613.69, 0.00, 0.00, 0.00, 1483139274743
6, -120068.63, -113453.49, -114108.00, -117099.65, -136204.42, -148033.75, -155134.59, -131618.16, 0.00, 0.00, 0.00, 1483139274747
7, -120065.66, -113450.66, -114106.12, -117097.68, -136202.36, -148031.33, -155132.14, -131614.58, 0.00, 0.00, 0.00, 1483139274751
8, -120060.18, -113445.58, -114102.99, -117094.46, -136199.19, -148027.70, -155128.67, -131609.72, 0.01, 0.11, 1.03, 1483139274755
9, -120062.59, -113448.09, -114104.78, -117096.52, -136201.00, -148029.92, -155131.31, -131612.92, 0.00, 0.00, 0.00, 1483139274759
10, -120067.84, -113453.31, -114108.20, -117100.09, -136204.28, -148033.72, -155135.23, -131617.73, 0.00, 0.00, 0.00, 1483139274764
11, -120067.20, -113452.78, -114108.22, -117099.98, -136204.03, -148033.34, -155134.72, -131616.31, 0.00, 0.00, 0.00, 1483139274767
12, -120061.84, -113447.82, -114105.38, -117096.90, -136200.94, -148029.81, -155131.31, -131611.30, 0.00, 0.00, 0.00, 1483139274771
13, -120063.27, -113449.43, -114106.81, -117098.46, -136202.41, -148031.47, -155133.38, -131613.59, 0.00, 0.00, 0.00, 1483139274775
14, -120069.09, -113455.15, -114110.66, -117102.44, -136206.25, -148035.73, -155137.84, -131619.16, 0.00, 0.00, 0.00, 1483139274779
15, -120067.78, -113454.10, -114109.59, -117101.14, -136204.89, -148034.33, -155136.23, -131617.13, 0.00, 0.00, 0.00, 1483139274783
16, -120061.43, -113448.20, -114105.74, -117097.09, -136200.86, -148029.78, -155131.77, -131610.84, 0.00, 0.00, 0.00, 1483139274787
17, -120060.83, -113447.93, -114105.70, -117097.32, -136200.91, -148029.98, -155132.23, -131611.30, 0.00, 0.00, 0.00, 1483139274791
18, -120065.68, -113452.66, -114108.65, -117100.47, -136203.80, -148033.39, -155135.97, -131616.20, 0.01, 0.11, 1.03, 1483139274796
19, -120067.40, -113454.41, -114109.90, -117101.55, -136204.84, -148034.39, -155137.00, -131616.91, 0.00, 0.00, 0.00, 1483139274800
20, -120062.77, -113450.23, -114107.69, -117099.16, -136202.30, -148031.47, -155134.05, -131612.16, 0.00, 0.00, 0.00, 1483139274803
21, -120059.73, -113447.44, -114105.79, -117097.34, -136200.47, -148029.45, -155132.30, -131610.05, 0.00, 0.00, 0.00, 1483139274806
22, -120064.02, -113451.73, -114108.36, -117100.09, -136203.05, -148032.58, -155135.72, -131614.55, 0.00, 0.00, 0.00, 1483139274811
23, -120065.03, -113452.87, -114108.52, -117100.25, -136202.83, -148032.73, -155135.89, -131614.73, 0.00, 0.00, 0.00, 1483139274815
24, -120060.76, -113448.78, -114106.30, -117097.73, -136200.33, -148029.73, -155132.92, -131610.22, 0.00, 0.00, 0.00, 1483139274819
25, -120059.27, -113447.55, -114106.34, -117097.84, -136200.50, -148029.55, -155132.98, -131609.55, 0.00, 0.00, 0.00, 1483139274822
26, -120062.46, -113450.79, -114108.06, -117099.89, -136202.30, -148031.89, -155135.70, -131613.30, 0.00, 0.00, 0.00, 1483139274828
27, -120064.76, -113453.23, -114109.16, -117100.96, -136203.08, -148033.11, -155136.91, -131614.88, 0.00, 0.00, 0.00, 1483139274831
28, -120062.55, -113451.26, -114108.47, -117100.14, -136202.23, -148031.94, -155135.66, -131612.13, 0.00, 0.12, 1.03, 1483139274834
29, -120056.53, -113445.54, -114104.51, -117096.16, -136198.27, -148027.64, -155131.52, -131606.89, 0.00, 0.00, 0.00, 1483139274838
30, -120060.70, -113449.88, -114107.71, -117099.53, -136201.48, -148031.31, -155135.56, -131611.81, 0.00, 0.00, 0.00, 1483139274843
31, -120064.47, -113453.63, -114109.88, -117101.70, -136203.41, -148033.75, -155138.02, -131614.98, 0.00, 0.00, 0.00, 1483139274847
32, -120060.63, -113449.90, -114107.17, -117098.84, -136200.33, -148030.44, -155134.69, -131610.39, 0.00, 0.00, 0.00, 1483139274851
33, -120056.38, -113446.03, -114105.30, -117096.92, -136198.42, -148027.95, -155132.44, -131606.78, 0.00, 0.00, 0.00, 1483139274856
34, -120058.37, -113448.20, -114106.81, -117098.59, -136200.16, -148029.83, -155134.80, -131609.64, 0.00, 0.00, 0.00, 1483139274858
35, -120063.20, -113453.05, -114109.83, -117101.73, -136203.05, -148033.25, -155138.33, -131614.08, 0.00, 0.00, 0.00, 1483139274862
36, -120063.11, -113453.18, -114110.39, -117102.06, -136203.23, -148033.44, -155138.36, -131613.22, 0.00, 0.00, 0.00, 1483139274870
37, -120057.34, -113447.82, -114106.95, -117098.59, -136199.77, -148029.50, -155134.48, -131607.61, 0.00, 0.00, 0.00, 1483139274872
38, -120057.38, -113448.04, -114107.22, -117099.00, -136200.11, -148029.88, -155135.30, -131608.67, 0.00, 0.11, 1.03, 1483139274876
39, -120062.84, -113453.47, -114110.91, -117102.66, -136203.64, -148034.13, -155139.47, -131613.97, 0.00, 0.00, 0.00, 1483139274880
40, -120063.02, -113453.74, -114111.06, -117102.62, -136203.45, -148033.98, -155139.34, -131613.22, 0.00, 0.00, 0.00, 1483139274884
41, -120057.97, -113449.12, -114108.52, -117099.94, -136200.80, -148030.72, -155136.13, -131608.39, 0.00, 0.00, 0.00, 1483139274886
42, -120056.80, -113448.24, -114108.06, -117099.66, -136200.38, -148030.33, -155136.05, -131608.23, 0.00, 0.00, 0.00, 1483139274895
43, -120061.32, -113452.71, -114110.63, -117102.55, -136202.98, -148033.59, -155139.45, -131612.75, 0.00, 0.00, 0.00, 1483139274895
44, -120064.29, -113455.57, -114113.01, -117104.83, -136205.06, -148035.69, -155141.70, -131614.80, 0.00, 0.00, 0.00, 1483139274899
45, -120058.23, -113449.88, -114109.20, -117100.77, -136201.09, -148031.17, -155137.23, -131608.59, 0.00, 0.00, 0.00, 1483139274903
46, -120054.21, -113446.21, -114106.45, -117098.13, -136198.39, -148028.45, -155134.67, -131605.59, 0.00, 0.00, 0.00, 1483139274907
47, -120059.55, -113451.62, -114110.14, -117101.99, -136202.05, -148032.69, -155139.20, -131611.30, 0.00, 0.00, 0.00, 1483139274911
48, -120062.73, -113454.86, -114112.34, -117104.14, -136204.02, -148034.80, -155141.44, -131613.58, 0.00, 0.11, 1.03, 1483139274913
49, -120058.01, -113450.57, -114109.52, -117101.10, -136201.05, -148031.47, -155137.91, -131608.55, 0.00, 0.00, 0.00, 1483139274918
50, -120056.00, -113448.84, -114109.36, -117100.88, -136200.81, -148031.00, -155137.75, -131607.48, 0.00, 0.00, 0.00, 1483139274923
51, -120060.34, -113453.18, -114112.42, -117104.14, -136203.97, -148034.53, -155141.70, -131612.39, 0.00, 0.00, 0.00, 1483139274927
52, -120063.38, -113456.13, -114113.95, -117105.70, -136205.25, -148036.20, -155143.50, -131614.59, 0.00, 0.00, 0.00, 1483139274931
53, -120058.39, -113451.35, -114110.48, -117101.99, -136201.38, -148032.11, -155139.30, -131609.02, 0.00, 0.00, 0.00, 1483139274935
54, -120054.48, -113447.93, -114108.76, -117100.36, -136199.72, -148030.03, -155137.39, -131605.88, 0.00, 0.00, 0.00, 1483139274938
55, -120057.92, -113451.41, -114111.33, -117103.16, -136202.42, -148033.05, -155140.92, -131610.00, 0.00, 0.00, 0.00, 1483139274942
56, -120062.55, -113456.06, -114114.34, -117106.20, -136205.22, -148036.30, -155144.25, -131614.05, 0.00, 0.00, 0.00, 1483139274946
57, -120058.08, -113451.86, -114110.93, -117102.55, -136201.52, -148032.38, -155140.14, -131608.78, 0.00, 0.00, 0.00, 1483139274951
58, -120052.98, -113447.15, -114108.22, -117099.87, -136198.81, -148029.27, -155137.13, -131604.30, 0.00, 0.00, 0.00, 1483139274956
59, -120055.91, -113450.21, -114110.77, -117102.62, -136201.48, -148032.16, -155140.41, -131608.00, 0.01, 0.11, 1.03, 1483139274958
60, -120061.30, -113455.55, -114114.32, -117106.20, -136204.98, -148036.09, -155144.44, -131613.03, 0.00, 0.00, 0.00, 1483139274964
61, -120062.03, -113456.38, -114115.42, -117107.13, -136205.73, -148036.88, -155145.11, -131612.86, 0.00, 0.00, 0.00, 1483139274966
62, -120056.00, -113450.74, -114111.87, -117103.49, -136202.05, -148032.67, -155140.95, -131607.09, 0.00, 0.00, 0.00, 1483139274970
63, -120055.15, -113450.16, -114111.26, -117103.11, -136201.53, -148032.27, -155140.86, -131607.17, 0.00, 0.00, 0.00, 1483139274974
64, -120059.28, -113454.16, -114113.43, -117105.50, -136203.61, -148034.97, -155143.88, -131611.22, 0.00, 0.00, 0.00, 1483139274978
65, -120060.47, -113455.46, -114114.50, -117106.44, -136204.39, -148035.80, -155144.77, -131611.47, 0.00, 0.00, 0.00, 1483139274984
66, -120054.88, -113450.27, -114111.40, -117103.18, -136201.00, -148031.91, -155141.02, -131605.97, 0.00, 0.00, 0.00, 1483139274987
67, -120054.39, -113450.08, -114111.82, -117103.76, -136201.48, -148032.33, -155141.75, -131606.64, 0.00, 0.00, 0.00, 1483139274991
68, -120059.40, -113455.04, -114114.91, -117106.93, -136204.55, -148035.98, -155145.69, -131611.58, 0.00, 0.00, 0.00, 1483139274995
69, -120061.41, -113457.05, -114116.20, -117108.14, -136205.72, -148037.25, -155146.83, -131612.63, 0.01, 0.12, 1.03, 1483139274999
70, -120055.95, -113451.95, -114112.96, -117104.56, -136202.20, -148033.28, -155142.84, -131607.14, 0.00, 0.00, 0.00, 1483139275002
71, -120049.67, -113446.07, -114108.13, -117099.82, -136197.38, -148028.31, -155138.22, -131601.91, 0.00, 0.00, 0.00, 1483139275006
72, -120054.28, -113450.68, -114111.20, -117103.22, -136200.44, -148031.94, -155142.11, -131606.98, 0.00, 0.00, 0.00, 1483139275010
73, -120056.47, -113452.87, -114112.36, -117104.25, -136201.38, -148033.16, -155143.36, -131608.31, 0.00, 0.00, 0.00, 1483139275014
74, -120053.96, -113450.68, -114111.69, -117103.42, -136200.50, -148031.89, -155141.86, -131605.30, 0.00, 0.00, 0.00, 1483139275018
75, -120050.99, -113448.13, -114110.73, -117102.35, -136199.41, -148030.50, -155140.64, -131603.06, 0.00, 0.00, 0.00, 1483139275022
76, -120056.55, -113453.83, -114115.13, -117107.02, -136203.88, -148035.44, -155145.95, -131609.45, 0.00, 0.00, 0.00, 1483139275028
77, -120060.02, -113457.25, -114117.07, -117109.01, -136205.73, -148037.66, -155148.19, -131612.25, 0.00, 0.00, 0.00, 1483139275032
78, -120054.39, -113451.91, -114112.78, -117104.56, -136201.17, -148032.83, -155143.23, -131606.03, 0.00, 0.00, 0.00, 1483139275034
79, -120050.84, -113448.76, -114111.44, -117103.18, -136199.88, -148031.08, -155141.59, -131603.06, 0.01, 0.12, 1.03, 1483139275038
80, -120053.88, -113451.86, -114113.81, -117105.77, -136202.20, -148033.78, -155144.70, -131606.95, 0.00, 0.00, 0.00, 1483139275042
81, -120059.40, -113457.43, -114117.56, -117109.59, -136205.73, -148037.78, -155148.97, -131611.89, 0.00, 0.00, 0.00, 1483139275047
82, -120057.61, -113455.80, -114116.58, -117108.36, -136204.39, -148036.33, -155147.34, -131609.33, 0.00, 0.00, 0.00, 1483139275051
83, -120051.93, -113450.50, -114113.30, -117105.01, -136201.05, -148032.53, -155143.66, -131604.19, 0.00, 0.00, 0.00, 1483139275055
84, -120053.23, -113452.04, -114114.46, -117106.28, -136202.30, -148033.94, -155145.52, -131606.52, 0.00, 0.00, 0.00, 1483139275059
85, -120057.97, -113456.67, -114117.21, -117109.16, -136204.95, -148037.14, -155148.89, -131610.91, 0.00, 0.00, 0.00, 1483139275062
86, -120056.55, -113455.33, -114116.27, -117108.01, -136203.56, -148035.64, -155147.36, -131608.72, 0.00, 0.00, 0.00, 1483139275066
87, -120050.59, -113449.77, -114112.78, -117104.34, -136200.00, -148031.55, -155143.39, -131602.94, 0.00, 0.00, 0.00, 1483139275071
88, -120048.71, -113448.13, -114111.22, -117103.09, -136198.58, -148030.25, -155142.48, -131602.00, 0.00, 0.00, 0.00, 1483139275075
89, -120054.21, -113453.54, -114114.81, -117106.82, -136202.14, -148034.39, -155146.73, -131607.42, 0.01, 0.12, 1.03, 1483139275079
90, -120054.59, -113454.12, -114115.02, -117106.82, -136202.05, -148034.39, -155146.61, -131606.83, 0.00, 0.00, 0.00, 1483139275083
91, -120048.58, -113448.38, -114111.33, -117102.88, -136198.16, -148029.98, -155142.25, -131600.72, 0.00, 0.00, 0.00, 1483139275087
92, -120049.56, -113449.65, -114113.34, -117104.98, -136200.23, -148031.89, -155144.48, -131602.75, 0.00, 0.00, 0.00, 1483139275090
93, -120055.93, -113456.04, -114117.92, -117109.86, -136204.84, -148037.13, -155149.83, -131609.41, 0.00, 0.00, 0.00, 1483139275094
94, -120057.23, -113457.38, -114118.48, -117110.38, -136205.17, -148037.66, -155150.41, -131609.84, 0.00, 0.00, 0.00, 1483139275099
95, -120051.35, -113451.86, -114114.77, -117106.41, -136201.20, -148033.19, -155145.89, -131603.73, 0.00, 0.00, 0.00, 1483139275102
96, -120046.50, -113447.44, -114111.55, -117103.27, -136198.03, -148029.77, -155142.88, -131600.00, 0.00, 0.00, 0.00, 1483139275108
97, -120051.87, -113452.78, -114115.42, -117107.36, -136202.00, -148034.13, -155147.61, -131605.84, 0.00, 0.00, 0.00, 1483139275111
98, -120056.98, -113457.92, -114119.30, -117111.29, -136205.64, -148038.03, -155151.55, -131610.08, 0.00, 0.00, 0.00, 1483139275115
99, -120052.31, -113453.52, -114116.36, -117108.18, -136202.47, -148034.50, -155148.02, -131604.92, 0.01, 0.12, 1.03, 1483139275118
100, -120049.00, -113450.50, -114114.86, -117106.75, -136201.00, -148032.84, -155146.45, -131602.33, 0.00, 0.00, 0.00, 1483139275123
101, -120052.65, -113454.26, -114117.41, -117109.48, -136203.45, -148035.91, -155149.83, -131606.59, 0.00, 0.00, 0.00, 1483139275126
102, -120055.44, -113457.02, -114118.73, -117110.75, -136204.53, -148037.31, -155151.36, -131608.78, 0.00, 0.00, 0.00, 1483139275130
103, -120050.01, -113451.88, -114114.57, -117106.30, -136200.03, -148032.61, -155146.50, -131602.70, 0.00, 0.00, 0.00, 1483139275134
104, -120044.09, -113446.41, -114110.84, -117102.71, -136196.39, -148028.48, -155142.47, -131597.34, 0.00, 0.00, 0.00, 1483139275139
105, -120046.16, -113448.69, -114112.29, -117104.38, -136198.03, -148030.39, -155144.81, -131600.30, 0.00, 0.00, 0.00, 1483139275144
106, -120051.75, -113454.23, -114116.16, -117108.25, -136201.61, -148034.53, -155149.11, -131605.53, 0.00, 0.00, 0.00, 1483139275146
107, -120050.12, -113452.84, -114115.28, -117107.24, -136200.50, -148033.28, -155147.67, -131603.20, 0.00, 0.00, 0.00, 1483139275150
108, -120045.67, -113448.78, -114113.43, -117105.14, -136198.50, -148030.81, -155145.39, -131599.17, 0.00, 0.00, 0.00, 1483139275154
109, -120046.66, -113449.90, -114114.26, -117106.26, -136199.41, -148031.89, -155146.94, -131601.13, 0.00, 0.11, 1.03, 1483139275159
110, -120052.34, -113455.48, -114117.97, -117110.13, -136203.05, -148036.02, -155151.30, -131606.47, 0.00, 0.00, 0.00, 1483139275163
111, -120052.13, -113455.48, -114117.92, -117109.97, -136202.78, -148035.67, -155150.83, -131605.44, 0.00, 0.00, 0.00, 1483139275167
112, -120047.66, -113451.33, -114115.87, -117107.71, -136200.55, -148032.98, -155148.13, -131601.13, 0.00, 0.00, 0.00, 1483139275171
113, -120047.62, -113451.46, -114116.36, -117108.38, -136201.17, -148033.67, -155149.11, -131601.95, 0.00, 0.00, 0.00, 1483139275175
114, -120051.23, -113455.08, -114118.10, -117110.28, -136202.83, -148035.91, -155151.66, -131605.59, 0.00, 0.00, 0.00, 1483139275179
115, -120051.30, -113455.23, -114117.84, -117109.88, -136202.34, -148035.47, -155151.23, -131604.81, 0.00, 0.00, 0.00, 1483139275182
116, -120046.84, -113451.17, -114115.64, -117107.47, -136200.00, -148032.58, -155148.23, -131600.25, 0.00, 0.00, 0.00, 1483139275187
117, -120047.80, -113452.31, -114117.74, -117109.62, -136202.03, -148034.64, -155150.52, -131602.08, 0.00, 0.00, 0.00, 1483139275191
118, -120051.70, -113456.24, -114120.09, -117112.07, -136204.31, -148037.47, -155153.67, -131606.38, 0.00, 0.00, 0.00, 1483139275195
119, -120052.04, -113456.71, -114119.66, -117111.55, -136203.64, -148036.92, -155153.20, -131605.88, 0.00, 0.11, 1.02, 1483139275200
120, -120048.11, -113453.12, -114117.70, -117109.50, -136201.48, -148034.22, -155150.61, -131601.64, 0.00, 0.00, 0.00, 1483139275202
121, -120046.48, -113451.84, -114117.59, -117109.52, -136201.44, -148033.97, -155150.52, -131600.83, 0.00, 0.00, 0.00, 1483139275206
122, -120049.80, -113455.26, -114119.53, -117111.65, -136203.44, -148036.52, -155153.28, -131604.73, 0.00, 0.00, 0.00, 1483139275211
123, -120052.51, -113457.92, -114120.94, -117113.01, -136204.58, -148038.17, -155154.92, -131606.67, 0.00, 0.00, 0.00, 1483139275214
124, -120048.80, -113454.34, -114118.66, -117110.58, -136201.95, -148035.23, -155151.98, -131602.31, 0.00, 0.00, 0.00, 1483139275219
125, -120044.06, -113449.92, -114116.07, -117107.91, -136199.28, -148032.20, -155149.20, -131598.34, 0.00, 0.00, 0.00, 1483139275224
126, -120047.51, -113453.56, -114118.46, -117110.55, -136201.89, -148035.22, -155152.53, -131602.58, 0.00, 0.00, 0.00, 1483139275227
127, -120051.57, -113457.67, -114120.85, -117112.95, -136204.17, -148037.97, -155155.34, -131605.92, 0.00, 0.00, 0.00, 1483139275230
128, -120049.07, -113455.53, -114119.64, -117111.67, -136202.67, -148036.06, -155153.42, -131602.91, 0.00, 0.00, 0.00, 1483139275234
129, -120044.04, -113450.99, -114117.03, -117108.98, -136200.03, -148032.94, -155150.41, -131598.50, 0.00, 0.10, 1.03, 1483139275239
130, -120046.68, -113453.67, -114119.09, -117111.20, -136202.16, -148035.42, -155153.38, -131601.88, 0.00, 0.00, 0.00, 1483139275242
131, -120051.62, -113458.52, -114122.20, -117114.35, -136205.06, -148038.77, -155156.94, -131606.33, 0.00, 0.00, 0.00, 1483139275246
132, -120050.03, -113456.96, -114121.16, -117113.15, -136203.75, -148037.41, -155155.34, -131603.88, 0.00, 0.00, 0.00, 1483139275252
133, -120045.76, -113453.14, -114119.48, -117111.34, -136201.95, -148035.11, -155153.09, -131600.00, 0.00, 0.00, 0.00, 1483139275254
134, -120045.70, -113453.20, -114119.55, -117111.54, -136202.03, -148035.36, -155153.83, -131600.94, 0.00, 0.00, 0.00, 1483139275258
135, -120050.86, -113458.41, -114122.77, -117114.89, -136205.14, -148039.05, -155157.67, -131605.92, 0.00, 0.00, 0.00, 1483139275262
136, -120051.91, -113459.59, -114123.71, -117115.78, -136205.84, -148039.78, -155158.30, -131605.97, 0.00, 0.00, 0.00, 1483139275267
137, -120046.72, -113454.79, -114120.91, -117112.85, -136202.94, -148036.31, -155154.89, -131600.83, 0.00, 0.00, 0.00, 1483139275271
138, -120044.38, -113452.60, -114119.20, -117111.24, -136201.28, -148034.56, -155153.58, -131599.52, 0.00, 0.00, 0.00, 1483139275274
139, -120050.57, -113458.68, -114123.47, -117115.67, -136205.52, -148039.42, -155158.72, -131605.69, 0.00, 0.10, 1.02, 1483139275278
140, -120050.90, -113459.17, -114123.51, -117115.56, -136205.20, -148039.22, -155158.52, -131605.19, 0.00, 0.00, 0.00, 1483139275282
141, -120043.57, -113452.17, -114118.30, -117110.28, -136199.88, -148033.47, -155152.70, -131597.67, 0.00, 0.00, 0.00, 1483139275286
142, -120041.73, -113450.63, -114117.70, -117109.77, -136199.36, -148032.77, -155152.30, -131596.83, 0.00, 0.00, 0.00, 1483139275290
143, -120046.74, -113455.64, -114121.14, -117113.23, -136202.67, -148036.78, -155156.44, -131602.27, 0.00, 0.00, 0.00, 1483139275295
144, -120048.55, -113457.61, -114122.17, -117114.15, -136203.45, -148037.72, -155157.42, -131603.22, 0.00, 0.00, 0.00, 1483139275299
145, -120042.66, -113452.02, -114118.17, -117109.97, -136199.20, -148033.08, -155152.75, -131596.89, 0.00, 0.00, 0.00, 1483139275303
146, -120039.84, -113449.54, -114117.05, -117108.85, -136198.11, -148031.78, -155151.59, -131595.00, 0.00, 0.00, 0.00, 1483139275307
147, -120044.63, -113454.37, -114120.47, -117112.59, -136201.72, -148035.80, -155155.97, -131600.31, 0.00, 0.00, 0.00, 1483139275310
148, -120048.20, -113457.95, -114122.70, -117114.84, -136203.61, -148038.14, -155158.36, -131603.06, 0.00, 0.00, 0.00, 1483139275314
149, -120043.70, -113453.67, -114119.64, -117111.63, -136200.31, -148034.50, -155154.58, -131597.98, 0.01, 0.11, 1.02, 1483139275318
150, -120039.95, -113450.27, -114118.08, -117109.97, -136198.73, -148032.33, -155152.81, -131594.97, 0.00, 0.00, 0.00, 1483139275323
151, -120044.95, -113455.39, -114122.20, -117114.40, -136202.97, -148036.97, -155157.83, -131600.86, 0.00, 0.00, 0.00, 1483139275326
152, -120049.02, -113459.35, -114124.52, -117116.77, -136205.17, -148039.53, -155160.53, -131604.41, 0.00, 0.00, 0.00, 1483139275330
153, -120048.33, -113458.84, -114124.70, -117116.84, -136205.06, -148039.27, -155160.13, -131602.89, 0.00, 0.00, 0.00, 1483139275335
154, -120042.48, -113453.41, -114121.25, -117113.41, -136201.48, -148035.28, -155156.33, -131597.70, 0.00, 0.00, 0.00, 1483139275339
155, -120043.66, -113454.70, -114122.08, -117114.33, -136202.41, -148036.42, -155157.94, -131599.75, 0.00, 0.00, 0.00, 1483139275341
156, -120050.59, -113461.54, -114127.13, -117119.52, -136207.30, -148041.92, -155163.55, -131606.33, 0.00, 0.00, 0.00, 1483139275346
157, -120050.52, -113461.79, -114127.69, -117119.92, -136207.55, -148042.13, -155163.64, -131605.59, 0.00, 0.00, 0.00, 1483139275351
158, -120045.65, -113457.32, -114125.27, -117117.26, -136204.95, -148039.08, -155160.58, -131600.97, 0.00, 0.00, 0.00, 1483139275354
159, -120044.38, -113456.31, -114124.34, -117116.41, -136204.08, -148038.28, -155160.17, -131600.61, 0.01, 0.11, 1.03, 1483139275358
160, -120050.97, -113462.93, -114129.03, -117121.30, -136208.75, -148043.48, -155165.64, -131607.11, 0.00, 0.00, 0.00, 1483139275362
161, -120051.53, -113463.59, -114129.48, -117121.64, -136209.00, -148043.67, -155165.78, -131606.80, 0.00, 0.00, 0.00, 1483139275365
162, -120042.77, -113455.23, -114123.17, -117115.23, -136202.56, -148036.78, -155158.83, -131598.13, 0.00, 0.00, 0.00, 1483139275370
163, -120040.62, -113453.43, -114121.92, -117114.04, -136201.33, -148035.58, -155157.88, -131596.98, 0.00, 0.00, 0.00, 1483139275374
164, -120046.77, -113459.51, -114126.26, -117118.35, -136205.53, -148040.38, -155162.88, -131603.17, 0.00, 0.00, 0.00, 1483139275379
165, -120049.49, -113462.16, -114128.47, -117120.43, -136207.48, -148042.33, -155164.84, -131604.94, 0.00, 0.00, 0.00, 1483139275382
166, -120042.86, -113455.95, -114124.05, -117115.90, -136202.83, -148037.25, -155159.70, -131598.17, 0.00, 0.00, 0.00, 1483139275386
167, -120039.26, -113452.69, -114121.66, -117113.77, -136200.70, -148034.91, -155157.69, -131595.48, 0.00, 0.00, 0.00, 1483139275390
168, -120045.78, -113459.24, -114126.55, -117118.87, -136205.58, -148040.31, -155163.50, -131602.39, 0.00, 0.00, 0.00, 1483139275393
169, -120048.29, -113461.70, -114127.91, -117120.14, -136206.63, -148041.61, -155164.94, -131604.03, 0.01, 0.11, 1.03, 1483139275398
170, -120046.77, -113460.42, -114128.23, -117120.25, -136206.70, -148041.28, -155164.52, -131602.06, 0.00, 0.00, 0.00, 1483139275402
171, -120043.75, -113457.63, -114126.95, -117118.91, -136205.41, -148039.73, -155163.19, -131599.78, 0.00, 0.00, 0.00, 1483139275406
172, -120045.27, -113459.17, -114127.13, -117119.20, -136205.67, -148040.42, -155164.31, -131601.91, 0.00, 0.00, 0.00, 1483139275410
173, -120048.96, -113462.95, -114129.45, -117121.57, -136207.81, -148042.95, -155166.83, -131604.98, 0.00, 0.00, 0.00, 1483139275415
174, -120047.51, -113461.70, -114129.37, -117121.28, -136207.41, -148042.30, -155166.14, -131602.75, 0.00, 0.00, 0.00, 1483139275418
175, -120041.34, -113455.91, -114125.43, -117117.21, -136203.25, -148037.92, -155161.83, -131597.17, 0.00, 0.00, 0.00, 1483139275421
176, -120041.56, -113456.36, -114125.08, -117117.13, -136203.02, -148037.88, -155162.25, -131598.34, 0.00, 0.00, 0.00, 1483139275425
177, -120047.10, -113461.97, -114128.95, -117121.13, -136206.88, -148042.19, -155166.50, -131603.42, 0.00, 0.00, 0.00, 1483139275432
178, -120044.11, -113459.26, -114126.95, -117118.82, -136204.55, -148039.73, -155163.86, -131599.72, 0.00, 0.00, 0.00, 1483139275435
179, -120040.71, -113456.24, -114125.92, -117117.82, -136203.34, -148038.14, -155162.39, -131596.72, 0.01, 0.11, 1.03, 1483139275439
180, -120042.97, -113458.57, -114127.94, -117119.96, -136205.33, -148040.42, -155165.05, -131599.83, 0.00, 0.00, 0.00, 1483139275443
181, -120048.35, -113464.02, -114131.45, -117123.63, -136208.78, -148044.34, -155169.09, -131604.88, 0.00, 0.00, 0.00, 1483139275446
182, -120048.51, -113464.31, -114131.94, -117123.98, -136209.02, -148044.45, -155169.25, -131604.23, 0.00, 0.00, 0.00, 1483139275449
183, -120040.89, -113456.98, -114126.75, -117118.71, -136203.72, -148038.59, -155163.55, -131596.88, 0.00, 0.00, 0.00, 1483139275453
184, -120039.68, -113456.00, -114125.86, -117117.95, -136202.86, -148037.97, -155163.22, -131596.70, 0.00, 0.00, 0.00, 1483139275458
185, -120044.45, -113460.65, -114128.56, -117120.81, -136205.53, -148041.13, -155166.66, -131601.17, 0.00, 0.00, 0.00, 1483139275462
186, -120045.45, -113461.72, -114129.32, -117121.41, -136206.05, -148041.64, -155167.17, -131601.25, 0.00, 0.00, 0.00, 1483139275467
187, -120040.40, -113456.98, -114126.64, -117118.58, -136203.13, -148038.33, -155163.77, -131596.20, 0.00, 0.00, 0.00, 1483139275470
188, -120039.19, -113455.98, -114126.35, -117118.35, -136202.89, -148037.92, -155163.72, -131596.05, 0.00, 0.00, 0.00, 1483139275474
189, -120044.30, -113461.27, -114129.81, -117121.93, -136206.20, -148041.88, -155167.92, -131601.39, 0.01, 0.11, 1.03, 1483139275478
190, -120045.02, -113462.15, -114129.91, -117121.88, -136206.08, -148041.95, -155167.97, -131601.44, 0.00, 0.00, 0.00, 1483139275482
191, -120037.63, -113455.08, -114124.59, -117116.48, -136200.59, -148036.14, -155161.98, -131593.81, 0.00, 0.00, 0.00, 1483139275487
192, -120032.73, -113450.50, -114121.21, -117113.01, -136197.13, -148032.56, -155158.55, -131589.78, 0.00, 0.00, 0.00, 1483139275489
193, -120037.71, -113455.64, -114124.67, -117116.70, -136200.66, -148036.50, -155162.83, -131595.02, 0.00, 0.00, 0.00, 1483139275495
194, -120041.96, -113459.82, -114127.65, -117119.70, -136203.41, -148039.55, -155165.94, -131598.39, 0.00, 0.00, 0.00, 1483139275499
195, -120039.44, -113457.59, -114126.91, -117118.76, -136202.39, -148038.19, -155164.48, -131595.44, 0.00, 0.00, 0.00, 1483139275502
196, -120034.63, -113453.02, -114124.02, -117115.90, -136199.59, -148035.06, -155161.48, -131591.39, 0.00, 0.00, 0.00, 1483139275506
197, -120038.70, -113457.16, -114127.02, -117119.05, -136202.61, -148038.53, -155165.25, -131596.11, 0.00, 0.00, 0.00, 1483139275510
198, -120042.79, -113461.23, -114129.48, -117121.51, -136204.75, -148041.13, -155168.11, -131599.31, 0.00, 0.00, 0.00, 1483139275514
199, -120041.52, -113460.22, -114129.48, -117121.33, -136204.58, -148040.53, -155167.41, -131597.55, 0.01, 0.11, 1.02, 1483139275517
200, -120036.80, -113455.88, -114127.02, -117118.91, -136201.95, -148037.67, -155164.67, -131593.48, 0.00, 0.00, 0.00, 1483139275523
201, -120036.17, -113455.33, -114125.63, -117117.80, -136200.70, -148036.66, -155164.11, -131593.67, 0.00, 0.00, 0.00, 1483139275527
202, -120042.74, -113461.79, -114130.26, -117122.51, -136205.25, -148041.66, -155169.30, -131599.67, 0.00, 0.00, 0.00, 1483139275530
203, -120042.14, -113461.45, -114130.46, -117122.51, -136205.11, -148041.34, -155168.95, -131598.33, 0.00, 0.00, 0.00, 1483139275534
204, -120036.04, -113455.59, -114126.75, -117118.66, -136201.28, -148036.97, -155164.69, -131592.47, 0.00, 0.00, 0.00, 1483139275537
205, -120037.27, -113456.94, -114127.89, -117119.92, -136202.50, -148038.48, -155166.52, -131594.64, 0.00, 0.00, 0.00, 1483139275542
206, -120039.34, -113459.15, -114128.14, -117120.21, -136202.61, -148039.20, -155167.34, -131596.41, 0.00, 0.00, 0.00, 1483139275546
207, -120037.78, -113457.80, -114126.88, -117118.84, -136201.11, -148037.66, -155165.61, -131594.06, 0.00, 0.00, 0.00, 1483139275550
208, -120033.52, -113453.92, -114125.05, -117116.74, -136199.08, -148035.16, -155163.23, -131589.94, 0.00, 0.00, 0.00, 1483139275555
209, -120033.22, -113453.85, -114125.37, -117117.15, -136199.41, -148035.55, -155163.95, -131590.69, 0.00, 0.00, 0.00, 1483139275557
210, -120040.87, -113461.61, -114131.18, -117123.25, -136205.31, -148041.80, -155170.59, -131598.33, 0.00, 0.11, 1.03, 1483139275562
211, -120042.03, -113462.91, -114132.02, -117124.08, -136205.92, -148042.48, -155171.19, -131598.53, 0.00, 0.00, 0.00, 1483139275566
212, -120034.85, -113455.95, -114127.04, -117118.91, -136200.73, -148036.88, -155165.53, -131591.13, 0.00, 0.00, 0.00, 1483139275570
213, -120030.38, -113451.80, -114123.73, -117115.45, -136197.41, -148033.41, -155162.36, -131587.59, 0.00, 0.00, 0.00, 1483139275573
214, -120035.48, -113456.94, -114127.27, -117119.16, -136200.89, -148037.47, -155166.70, -131592.98, 0.00, 0.00, 0.00, 1483139275578
215, -120040.42, -113461.92, -114131.40, -117123.30, -136204.70, -148041.45, -155170.75, -131597.03, 0.00, 0.00, 0.00, 1483139275583
216, -120035.05, -113456.91, -114128.02, -117119.74, -136201.22, -148037.41, -155166.67, -131591.53, 0.00, 0.00, 0.00, 1483139275586
217, -120030.59, -113452.73, -114125.08, -117116.86, -136198.25, -148034.39, -155163.84, -131587.86, 0.00, 0.00, 0.00, 1483139275590
218, -120035.23, -113457.43, -114128.18, -117120.21, -136201.41, -148038.02, -155167.91, -131592.98, 0.00, 0.00, 0.00, 1483139275594
219, -120037.83, -113460.09, -114129.57, -117121.53, -136202.50, -148039.48, -155169.38, -131594.97, 0.00, 0.00, 0.00, 1483139275597
220, -120033.58, -113456.04, -114126.98, -117118.58, -136199.55, -148036.27, -155165.95, -131590.14, 0.01, 0.11, 1.03, 1483139275602
221, -120029.89, -113452.63, -114125.19, -117116.88, -136197.75, -148034.13, -155164.03, -131587.20, 0.00, 0.00, 0.00, 1483139275607
222, -120033.91, -113456.63, -114128.09, -117120.08, -136200.73, -148037.52, -155167.86, -131591.89, 0.00, 0.00, 0.00, 1483139275609
223, -120037.16, -113459.89, -114129.70, -117121.82, -136202.19, -148039.42, -155169.88, -131594.50, 0.00, 0.00, 0.00, 1483139275613
224, -120033.73, -113456.78, -114127.47, -117119.38, -136199.70, -148036.56, -155166.97, -131590.39, 0.00, 0.00, 0.00, 1483139275618
225, -120029.47, -113452.84, -114125.48, -117117.34, -136197.67, -148034.09, -155164.69, -131586.64, 0.00, 0.00, 0.00, 1483139275622
226, -120033.71, -113457.23, -114129.37, -117121.35, -136201.53, -148038.38, -155169.30, -131591.89, 0.00, 0.00, 0.00, 1483139275626
227, -120039.73, -113463.20, -114133.52, -117125.53, -136205.52, -148042.92, -155173.88, -131597.55, 0.00, 0.00, 0.00, 1483139275630
228, -120036.66, -113460.45, -114131.22, -117123.00, -136202.92, -148040.20, -155171.02, -131593.67, 0.00, 0.00, 0.00, 1483139275634
229, -120030.74, -113454.91, -114127.80, -117119.43, -136199.36, -148036.14, -155167.13, -131588.11, 0.00, 0.00, 0.00, 1483139275638
230, -120031.75, -113456.18, -114129.03, -117120.95, -136200.73, -148037.70, -155168.95, -131590.22, 0.01, 0.11, 1.03, 1483139275641
231, -120038.19, -113462.57, -114133.52, -117125.59, -136205.17, -148042.59, -155174.13, -131596.36, 0.00, 0.00, 0.00, 1483139275645
232, -120036.62, -113461.07, -114132.07, -117123.98, -136203.41, -148040.77, -155172.23, -131593.77, 0.00, 0.00, 0.00, 1483139275650
233, -120031.95, -113456.80, -114129.73, -117121.59, -136201.00, -148037.81, -155169.31, -131589.19, 0.00, 0.00, 0.00, 1483139275654
234, -120031.97, -113457.05, -114130.41, -117122.34, -136201.73, -148038.58, -155170.41, -131590.19, 0.00, 0.00, 0.00, 1483139275658
235, -120037.89, -113462.91, -114134.42, -117126.52, -136205.64, -148043.02, -155175.17, -131596.19, 0.00, 0.00, 0.00, 1483139275662
236, -120039.70, -113464.80, -114135.73, -117127.77, -136206.66, -148044.22, -155176.38, -131597.05, 0.00, 0.00, 0.00, 1483139275666
237, -120034.49, -113460.18, -114132.92, -117124.77, -136203.69, -148040.77, -155172.91, -131591.88, 0.00, 0.00, 0.00, 1483139275669
238, -120033.85, -113459.59, -114133.28, -117125.30, -136204.19, -148041.16, -155173.61, -131592.14, 0.00, 0.00, 0.00, 1483139275673
239, -120037.55, -113463.24, -114135.29, -117127.48, -136206.11, -148043.72, -155176.42, -131596.16, 0.00, 0.00, 0.00, 1483139275678
240, -120039.75, -113465.52, -114136.48, -117128.59, -136207.22, -148044.92, -155177.72, -131597.55, 0.01, 0.11, 1.03, 1483139275682
241, -120036.55, -113462.75, -114135.36, -117127.20, -136205.84, -148043.13, -155175.89, -131594.13, 0.00, 0.00, 0.00, 1483139275686
242, -120032.04, -113458.55, -114132.52, -117124.41, -136202.97, -148040.06, -155172.89, -131590.44, 0.00, 0.00, 0.00, 1483139275690
243, -120035.48, -113462.08, -114134.58, -117126.76, -136205.09, -148042.70, -155176.02, -131594.45, 0.00, 0.00, 0.00, 1483139275694
244, -120037.36, -113463.87, -114135.13, -117127.25, -136205.41, -148043.33, -155176.67, -131595.53, 0.00, 0.00, 0.00, 1483139275697
245, -120033.00, -113459.75, -114132.38, -117124.19, -136202.30, -148040.03, -155173.20, -131590.64, 0.00, 0.00, 0.00, 1483139275701
246, -120028.04, -113455.26, -114129.59, -117121.41, -136199.45, -148036.77, -155170.19, -131586.33, 0.00, 0.00, 0.00, 1483139275706
247, -120030.54, -113457.88, -114131.29, -117123.36, -136201.16, -148038.75, -155172.58, -131589.61, 0.00, 0.00, 0.00, 1483139275711
248, -120035.14, -113462.50, -114134.26, -117126.38, -136204.08, -148042.08, -155175.91, -131593.56, 0.00, 0.00, 0.00, 1483139275714
249, -120033.13, -113460.73, -114133.26, -117125.23, -136202.81, -148040.58, -155174.33, -131590.77, 0.00, 0.00, 0.00, 1483139275719
250, -120031.23, -113459.28, -114133.75, -117125.64, -136203.25, -148040.56, -155174.39, -131589.45, 0.01, 0.11, 1.03, 1483139275723
251, -120033.11, -113461.30, -114135.31, -117127.34, -136204.84, -148042.50, -155176.72, -131592.38, 0.00, 0.00, 0.00, 1483139275725
252, -120039.44, -113467.45, -114139.73, -117131.67, -136209.05, -148047.25, -155181.63, -131598.19, 0.00, 0.00, 0.00, 1483139275730
253, -120038.19, -113466.41, -114138.95, -117130.76, -136208.00, -148046.02, -155180.41, -131596.11, 0.00, 0.00, 0.00, 1483139275734
254, -120031.32, -113459.95, -114134.53, -117126.24, -136203.39, -148041.05, -155175.39, -131589.63, 0.00, 0.00, 0.00, 1483139275738
255, -120031.37, -113460.16, -114134.69, -117126.69, -136203.69, -148041.55, -155176.22, -131590.84, 0.00, 0.00, 0.00, 1483139275743
0, -120036.30, -113465.03, -114137.70, -117129.87, -136206.63, -148045.03, -155179.95, -131595.63, 0.00, 0.00, 0.00, 1483139275746
1, -120036.15, -113464.94, -114137.44, -117129.44, -136206.09, -148044.45, -155179.31, -131594.45, 0.00, 0.00, 0.00, 1483139275750
2, -120032.44, -113461.63, -114136.19, -117128.03, -136204.64, -148042.48, -155177.36, -131590.89, 0.00, 0.00, 0.00, 1483139275753
3, -120031.08, -113460.45, -114135.67, -117127.56, -136204.17, -148041.98, -155177.31, -131590.42, 0.00, 0.00, 0.00, 1483139275757
4, -120035.62, -113465.14, -114138.46, -117130.47, -136206.98, -148045.34, -155181.03, -131595.22, 0.01, 0.10, 1.02, 1483139275762
5, -120038.20, -113467.77, -114140.50, -117132.52, -136208.70, -148047.31, -155182.86, -131596.89, 0.00, 0.00, 0.00, 1483139275766
6, -120032.71, -113462.68, -114137.23, -117129.20, -136205.22, -148043.44, -155178.83, -131591.27, 0.00, 0.00, 0.00, 1483139275770
7, -120029.94, -113460.18, -114135.76, -117127.74, -136203.92, -148041.83, -155177.61, -131589.45, 0.00, 0.00, 0.00, 1483139275774
8, -120033.63, -113463.93, -114137.97, -117130.09, -136206.08, -148044.52, -155180.72, -131593.59, 0.00, 0.00, 0.00, 1483139275778
9, -120035.77, -113466.03, -114139.05, -117131.05, -136206.78, -148045.52, -155181.73, -131594.80, 0.00, 0.00, 0.00, 1483139275781
10, -120030.48, -113461.12, -114135.70, -117127.36, -136203.23, -148041.52, -155177.58, -131589.08, 0.00, 0.00, 0.00, 1483139275785
11, -120025.94, -113456.91, -114132.85, -117124.74, -136200.50, -148038.53, -155174.77, -131585.39, 0.00, 0.00, 0.00, 1483139275790
12, -120032.66, -113463.46, -114138.30, -117130.38, -136205.89, -148044.34, -155181.05, -131592.56, 0.00, 0.00, 0.00, 1483139275794
13, -120037.05, -113467.84, -114141.26, -117133.30, -136208.58, -148047.48, -155184.27, -131596.19, 0.00, 0.00, 0.00, 1483139275799
14, -120033.27, -113464.27, -114138.87, -117130.85, -136205.98, -148044.67, -155181.19, -131591.91, 0.01, 0.11, 1.03, 1483139275802
15, -120027.79, -113459.20, -114135.54, -117127.48, -136202.67, -148040.81, -155177.63, -131587.05, 0.00, 0.00, 0.00, 1483139275806
16, -120031.63, -113463.35, -114138.69, -117130.67, -136205.84, -148044.27, -155181.66, -131591.75, 0.00, 0.00, 0.00, 1483139275809
17, -120036.10, -113467.69, -114141.39, -117133.48, -136208.39, -148047.36, -155184.73, -131595.67, 0.00, 0.00, 0.00, 1483139275813
18, -120034.70, -113466.52, -114141.02, -117132.95, -136207.77, -148046.42, -155183.66, -131593.66, 0.00, 0.00, 0.00, 1483139275818
19, -120030.12, -113462.34, -114138.87, -117130.70, -136205.53, -148043.73, -155181.09, -131589.55, 0.00, 0.00, 0.00, 1483139275822
20, -120031.86, -113464.24, -114140.32, -117132.34, -136207.08, -148045.52, -155183.38, -131592.20, 0.00, 0.00, 0.00, 1483139275826
21, -120036.04, -113468.60, -114142.84, -117134.91, -136209.31, -148048.39, -155186.45, -131596.22, 0.00, 0.00, 0.00, 1483139275829
22, -120034.48, -113467.20, -114141.62, -117133.51, -136207.81, -148046.89, -155184.78, -131593.75, 0.00, 0.00, 0.00, 1483139275834
23, -120026.05, -113459.10, -114135.80, -117127.56, -136201.73, -148040.34, -155178.36, -131585.59, 0.00, 0.00, 0.00, 1483139275837
24, -120024.13, -113457.38, -114134.10, -117126.16, -136200.34, -148038.95, -155177.30, -131584.61, 0.01, 0.11, 1.03, 1483139275841
25, -120029.80, -113463.06, -114137.81, -117130.00, -136204.08, -148043.20, -155181.73, -131590.17, 0.00, 0.00, 0.00, 1483139275846
26, -120029.67, -113462.97, -114137.50, -117129.57, -136203.53, -148042.61, -155181.25, -131589.20, 0.00, 0.00, 0.00, 1483139275850
27, -120025.22, -113458.88, -114135.47, -117127.41, -136201.33, -148039.95, -155178.52, -131584.80, 0.00, 0.00, 0.00, 1483139275855
28, -120025.22, -113459.22, -114136.43, -117128.48, -136202.30, -148040.88, -155179.81, -131585.77, 0.00, 0.00, 0.00, 1483139275857
29, -120030.70, -113464.54, -114140.05, -117132.32, -136206.03, -148045.19, -155184.33, -131591.47, 0.00, 0.00, 0.00, 1483139275862
30, -120032.59, -113466.50, -114141.28, -117133.46, -136206.91, -148046.28, -155185.39, -131592.56, 0.00, 0.00, 0.00, 1483139275865
31, -120026.23, -113460.52, -114137.01, -117129.02, -136202.39, -148041.34, -155180.44, -131585.94, 0.00, 0.00, 0.00, 1483139275870
32, -120022.90, -113457.43, -114134.95, -117127.05, -136200.42, -148039.20, -155178.66, -131583.44, 0.00, 0.00, 0.00, 1483139275873
33, -120030.07, -113464.65, -114140.56, -117132.99, -136206.09, -148045.48, -155185.23, -131591.16, 0.00, 0.00, 0.00, 1483139275878
34, -120031.23, -113465.92, -114140.81, -117133.11, -136206.05, -148045.59, -155185.45, -131591.67, 0.01, 0.11, 1.03, 1483139275882
35, -120029.13, -113464.13, -114140.54, -117132.75, -136205.52, -148044.73, -155184.48, -131589.19, 0.00, 0.00, 0.00, 1483139275885
36, -120025.65, -113461.05, -114139.05, -117131.18, -136204.06, -148042.91, -155182.86, -131586.45, 0.00, 0.00, 0.00, 1483139275890
37, -120028.02, -113463.48, -114140.30, -117132.59, -136205.31, -148044.58, -155184.88, -131589.39, 0.00, 0.00, 0.00, 1483139275894
38, -120031.61, -113467.09, -114142.46, -117134.70, -136207.23, -148047.02, -155187.31, -131592.31, 0.00, 0.00, 0.00, 1483139275898
39, -120027.05, -113462.86, -114139.34, -117131.34, -136203.84, -148043.31, -155183.39, -131587.08, 0.00, 0.00, 0.00, 1483139275901
40, -120021.98, -113458.14, -114136.43, -117128.57, -136200.94, -148040.00, -155180.25, -131582.59, 0.00, 0.00, 0.00, 1483139275906
41, -120024.98, -113461.23, -114138.76, -117131.14, -136203.34, -148042.73, -155183.44, -131586.39, 0.00, 0.00, 0.00, 1483139275910
42, -120028.91, -113465.20, -114141.02, -117133.35, -136205.42, -148045.34, -155186.13, -131589.88, 0.00, 0.00, 0.00, 1483139275914
43, -120027.57, -113464.18, -114140.56, -117132.73, -136204.66, -148044.34, -155185.05, -131587.95, 0.00, 0.00, 0.00, 1483139275917
44, -120022.41, -113459.30, -114137.70, -117129.87, -136201.83, -148041.00, -155181.77, -131583.22, 0.01, 0.11, 1.03, 1483139275921
45, -120022.29, -113459.26, -114137.48, -117129.82, -136201.67, -148041.03, -155182.28, -131584.17, 0.00, 0.00, 0.00, 1483139275926
46, -120029.00, -113465.92, -114142.24, -117134.70, -136206.39, -148046.23, -155187.78, -131590.59, 0.00, 0.00, 0.00, 1483139275929
47, -120028.02, -113465.19, -114141.44, -117133.80, -136205.41, -148045.20, -155186.66, -131588.73, 0.00, 0.00, 0.00, 1483139275934
48, -120021.63, -113459.10, -114137.44, -117129.73, -136201.25, -148040.53, -155182.02, -131582.45, 0.00, 0.00, 0.00, 1483139275938
49, -120021.27, -113458.88, -114137.50, -117129.87, -136201.33, -148040.66, -155182.55, -131583.06, 0.00, 0.00, 0.00, 1483139275941
50, -120025.76, -113463.35, -114140.12, -117132.57, -136203.86, -148043.80, -155185.97, -131587.55, 0.00, 0.00, 0.00, 1483139275946
51, -120025.84, -113463.53, -114139.89, -117132.32, -136203.39, -148043.42, -155185.52, -131586.70, 0.00, 0.00, 0.00, 1483139275950
52, -120019.99, -113458.08, -114136.41, -117128.57, -136199.66, -148039.17, -155181.20, -131580.73, 0.00, 0.00, 0.00, 1483139275953
53, -120019.90, -113458.28, -114137.41, -117129.64, -136200.63, -148040.16, -155182.56, -131581.63, 0.00, 0.00, 0.00, 1483139275957
54, -120025.51, -113463.91, -114141.39, -117133.80, -136204.53, -148044.70, -155187.33, -131587.55, 0.01, 0.11, 1.04, 1483139275962
55, -120027.16, -113465.54, -114142.35, -117134.67, -136205.22, -148045.52, -155188.22, -131588.22, 0.00, 0.00, 0.00, 1483139275967
56, -120021.60, -113460.45, -114138.93, -117131.12, -136201.64, -148041.45, -155184.09, -131582.50, 0.00, 0.00, 0.00, 1483139275970
57, -120017.69, -113456.84, -114136.56, -117128.88, -136199.41, -148038.92, -155181.83, -131579.53, 0.00, 0.00, 0.00, 1483139275974
58, -120022.65, -113461.79, -114140.03, -117132.57, -136203.05, -148042.95, -155186.22, -131584.95, 0.00, 0.00, 0.00, 1483139275977
59, -120023.81, -113462.97, -114140.05, -117132.48, -136202.78, -148043.06, -155186.34, -131585.36, 0.00, 0.00, 0.00, 1483139275982
60, -120021.76, -113461.18, -114139.67, -117131.88, -136202.16, -148042.11, -155185.31, -131582.80, 0.00, 0.00, 0.00, 1483139275985
61, -120017.04, -113456.89, -114136.99, -117129.17, -136199.39, -148039.05, -155182.48, -131578.88, 0.00, 0.00, 0.00, 1483139275989
62, -120020.15, -113460.13, -114138.91, -117131.48, -136201.52, -148041.50, -155185.39, -131582.72, 0.00, 0.00, 0.00, 1483139275994
63, -120025.69, -113465.66, -114142.89, -117135.32, -136205.25, -148045.81, -155189.70, -131587.64, 0.00, 0.00, 0.00, 1483139275997
64, -120023.41, -113463.66, -114141.91, -117134.11, -136203.92, -148044.25, -155188.00, -131584.84, 0.01, 0.11, 1.04, 1483139276001
65, -120018.18, -113458.81, -114138.84, -117131.12, -136200.91, -148040.89, -155184.72, -131580.17, 0.00, 0.00, 0.00, 1483139276005
66, -120019.37, -113460.13, -114139.49, -117131.88, -136201.58, -148041.88, -155186.17, -131582.13, 0.00, 0.00, 0.00, 1483139276009
67, -120025.11, -113465.77, -114143.38, -117135.85, -136205.47, -148046.11, -155190.53, -131587.44, 0.00, 0.00, 0.00, 1483139276014
68, -120024.21, -113464.88, -114143.00, -117135.41, -136204.84, -148045.34, -155189.70, -131585.78, 0.00, 0.00, 0.00, 1483139276018
69, -120015.95, -113457.14, -114137.32, -117129.46, -136198.86, -148038.92, -155183.38, -131577.89, 0.00, 0.00, 0.00, 1483139276022
70, -120014.94, -113456.24, -114136.30, -117128.68, -136197.88, -148038.14, -155183.02, -131577.83, 0.00, 0.00, 0.00, 1483139276024
71, -120020.30, -113461.66, -114139.72, -117132.32, -136201.27, -148042.13, -155187.13, -131583.02, 0.00, 0.00, 0.00, 1483139276030
72, -120020.41, -113462.08, -114140.14, -117132.46, -136201.27, -148042.19, -155187.08, -131582.22, 0.00, 0.00, 0.00, 1483139276033
73, -120016.80, -113458.79, -114138.93, -117131.09, -136200.06, -148040.34, -155185.34, -131578.72, 0.00, 0.00, 0.00, 1483139276037
74, -120015.90, -113458.13, -114138.64, -117130.94, -136199.80, -148040.14, -155185.45, -131578.70, 0.01, 0.11, 1.03, 1483139276041
75, -120022.88, -113464.98, -114143.80, -117136.21, -136204.81, -148045.75, -155191.27, -131585.59, 0.00, 0.00, 0.00, 1483139276046
76, -120022.65, -113464.98, -114143.29, -117135.56, -136203.92, -148044.92, -155190.41, -131584.42, 0.00, 0.00, 0.00, 1483139276049
77, -120016.44, -113459.09, -114139.23, -117131.48, -136199.70, -148040.30, -155185.75, -131578.05, 0.00, 0.00, 0.00, 1483139276052
78, -120016.81, -113459.77, -114140.79, -117133.13, -136201.44, -148041.88, -155187.48, -131579.39, 0.00, 0.00, 0.00, 1483139276058
79, -120021.13, -113464.09, -114143.41, -117135.92, -136204.02, -148044.97, -155190.92, -131584.02, 0.00, 0.00, 0.00, 1483139276061
80, -120022.88, -113465.84, -114144.09, -117136.52, -136204.50, -148045.70, -155191.70, -131584.80, 0.00, 0.00, 0.00, 1483139276066
81, -120016.21, -113459.51, -114139.34, -117131.61, -136199.55, -148040.38, -155186.28, -131577.81, 0.00, 0.00, 0.00, 1483139276070
82, -120015.41, -113458.97, -114140.14, -117132.41, -136200.27, -148040.88, -155187.02, -131577.78, 0.00, 0.00, 0.00, 1483139276074
83, -120020.08, -113463.62, -114143.45, -117135.84, -136203.55, -148044.61, -155191.16, -131583.08, 0.00, 0.00, 0.00, 1483139276077
84, -120026.23, -113469.77, -114148.21, -117140.59, -136208.11, -148049.45, -155196.14, -131588.42, 0.00, 0.11, 1.04, 1483139276080
85, -120021.87, -113465.74, -114145.46, -117137.64, -136205.16, -148046.13, -155192.72, -131583.53, 0.00, 0.00, 0.00, 1483139276085
86, -120016.16, -113460.34, -114141.75, -117133.93, -136201.44, -148042.08, -155188.73, -131578.48, 0.00, 0.00, 0.00, 1483139276090
87, -120019.48, -113463.84, -114144.25, -117136.52, -136203.88, -148044.97, -155192.09, -131582.56, 0.00, 0.00, 0.00, 1483139276093
88, -120025.42, -113469.77, -114148.55, -117140.95, -136207.92, -148049.52, -155196.73, -131587.73, 0.00, 0.00, 0.00, 1483139276098
89, -120021.91, -113466.48, -114146.04, -117138.20, -136205.11, -148046.47, -155193.52, -131583.39, 0.00, 0.00, 0.00, 1483139276101
90, -120016.55, -113461.52, -114143.00, -117135.07, -136202.05, -148042.92, -155190.09, -131578.61, 0.00, 0.00, 0.00, 1483139276106
91, -120016.95, -113462.21, -114142.94, -117135.25, -136202.11, -148043.25, -155190.77, -131579.78, 0.00, 0.00, 0.00, 1483139276108
92, -120023.21, -113468.38, -114147.27, -117139.77, -136206.41, -148048.00, -155195.69, -131585.45, 0.00, 0.00, 0.00, 1483139276114
93, -120023.03, -113468.38, -114147.63, -117139.95, -136206.39, -148047.94, -155195.47, -131584.42, 0.00, 0.00, 0.00, 1483139276117
94, -120018.45, -113464.09, -114145.41, -117137.66, -136204.08, -148045.13, -155192.61, -131580.00, 0.00, 0.00, 0.00, 1483139276122
95, -120018.60, -113464.40, -114145.68, -117138.02, -136204.38, -148045.59, -155193.39, -131581.05, 0.00, 0.11, 1.03, 1483139276125
96, -120021.47, -113467.24, -114146.64, -117139.05, -136205.16, -148046.91, -155195.02, -131583.73, 0.00, 0.00, 0.00, 1483139276130
97, -120021.73, -113467.76, -114146.91, -117139.14, -136205.17, -148046.97, -155194.89, -131583.11, 0.00, 0.00, 0.00, 1483139276132
98, -120017.60, -113463.91, -114145.08, -117137.17, -136203.28, -148044.52, -155192.50, -131578.97, 0.00, 0.00, 0.00, 1483139276137
99, -120016.59, -113463.11, -114144.79, -117136.91, -136202.94, -148044.11, -155192.53, -131578.86, 0.00, 0.00, 0.00, 1483139276141
100, -120020.19, -113466.64, -114146.45, -117138.85, -136204.53, -148046.34, -155195.11, -131582.53, 0.00, 0.00, 0.00, 1483139276145
101, -120022.67, -113469.12, -114148.27, -117140.62, -136206.11, -148048.09, -155196.81, -131584.05, 0.00, 0.00, 0.00, 1483139276149
102, -120018.85, -113465.70, -114146.71, -117138.83, -136204.39, -148045.91, -155194.50, -131580.13, 0.00, 0.00, 0.00, 1483139276153
103, -120016.50, -113463.62, -114145.57, -117137.69, -136203.23, -148044.67, -155193.56, -131578.61, 0.00, 0.00, 0.00, 1483139276158
104, -120022.00, -113469.25, -114149.62, -117141.84, -136207.19, -148049.17, -155198.44, -131584.53, 0.00, 0.00, 0.00, 1483139276161
105, -120026.77, -113474.15, -114153.40, -117145.65, -136210.72, -148052.98, -155202.11, -131588.42, 0.01, 0.11, 1.04, 1483139276165
106, -120023.01, -113470.55, -114151.49, -117143.56, -136208.53, -148050.39, -155199.42, -131584.02, 0.00, 0.00, 0.00, 1483139276169
107, -120018.41, -113466.21, -114148.70, -117140.73, -136205.63, -148047.20, -155196.50, -131580.16, 0.00, 0.00, 0.00, 1483139276174
108, -120021.73, -113469.56, -114150.71, -117142.90, -136207.75, -148049.75, -155199.38, -131584.00, 0.00, 0.00, 0.00, 1483139276178
109, -120023.92, -113471.84, -114151.59, -117143.68, -136208.28, -148050.73, -155200.34, -131585.44, 0.00, 0.00, 0.00, 1483139276182
110, -120020.62, -113468.72, -114149.73, -117141.63, -136206.19, -148048.31, -155197.81, -131581.52, 0.00, 0.00, 0.00, 1483139276185
111, -120017.46, -113465.90, -114148.57, -117140.57, -136205.09, -148046.81, -155196.47, -131579.00, 0.00, 0.00, 0.00, 1483139276189
112, -120020.95, -113469.48, -114151.18, -117143.37, -136207.86, -148049.95, -155199.88, -131583.22, 0.00, 0.00, 0.00, 1483139276193
113, -120026.34, -113474.91, -114154.84, -117147.01, -136211.28, -148053.95, -155203.92, -131588.05, 0.00, 0.00, 0.00, 1483139276197
114, -120023.37, -113472.23, -114152.86, -117144.91, -136208.95, -148051.41, -155201.33, -131584.38, 0.00, 0.00, 0.00, 1483139276200
115, -120016.91, -113466.05, -114148.70, -117140.59, -136204.73, -148046.63, -155196.77, -131578.28, 0.00, 0.10, 1.03, 1483139276205
116, -120019.86, -113469.14, -114151.30, -117143.34, -136207.45, -148049.59, -155200.00, -131582.14, 0.00, 0.00, 0.00, 1483139276210
117, -120023.97, -113473.12, -114153.44, -117145.58, -136209.47, -148052.05, -155202.75, -131585.78, 0.00, 0.00, 0.00, 1483139276212
118, -120022.38, -113471.71, -114152.23, -117144.26, -136208.00, -148050.59, -155201.05, -131583.31, 0.00, 0.00, 0.00, 1483139276217
119, -120017.98, -113467.66, -114150.22, -117142.12, -136205.80, -148048.00, -155198.53, -131579.11, 0.00, 0.00, 0.00, 1483139276221
120, -120017.58, -113467.53, -114150.18, -117142.18, -136205.80, -148047.98, -155199.09, -131579.70, 0.00, 0.00, 0.00, 1483139276224
121, -120022.49, -113472.45, -114153.35, -117145.40, -136208.73, -148051.56, -155202.84, -131584.45, 0.00, 0.00, 0.00, 1483139276229
122, -120022.52, -113472.49, -114153.15, -117145.17, -136208.28, -148051.27, -155202.34, -131583.53, 0.00, 0.00, 0.00, 1483139276234
123, -120016.26, -113466.66, -114149.23, -117141.04, -136204.27, -148046.69, -155197.77, -131577.25, 0.00, 0.00, 0.00, 1483139276238
124, -120015.38, -113466.10, -114149.26, -117141.13, -136204.39, -148046.69, -155198.13, -131577.25, 0.00, 0.00, 0.00, 1483139276240
125, -120021.73, -113472.34, -114153.66, -117145.80, -136208.80, -148051.63, -155203.33, -131583.59, 0.00, 0.10, 1.03, 1483139276244
126, -120023.14, -113473.92, -114154.53, -117146.43, -136209.30, -148052.30, -155203.94, -131584.16, 0.00, 0.00, 0.00, 1483139276249
127, -120018.56, -113469.72, -114152.21, -117143.86, -136206.59, -148049.19, -155200.88, -131579.44, 0.00, 0.00, 0.00, 1483139276252
128, -120016.50, -113467.87, -114151.47, -117143.25, -136205.92, -148048.36, -155200.38, -131578.28, 0.00, 0.00, 0.00, 1483139276257
129, -120021.40, -113472.74, -114154.76, -117146.78, -136209.25, -148052.09, -155204.50, -131583.58, 0.00, 0.00, 0.00, 1483139276262
130, -120023.52, -113474.93, -114155.67, -117147.59, -136210.00, -148053.17, -155205.45, -131584.84, 0.00, 0.00, 0.00, 1483139276266
131, -120018.02, -113469.72, -114151.90, -117143.66, -136205.98, -148048.81, -155201.05, -131579.00, 0.00, 0.00, 0.00, 1483139276269
132, -120014.52, -113466.48, -114150.29, -117142.05, -136204.28, -148046.84, -155199.31, -131576.28, 0.00, 0.00, 0.00, 1483139276273
133, -120018.49, -113470.46, -114153.04, -117145.04, -136207.09, -148050.22, -155202.94, -131580.94, 0.00, 0.00, 0.00, 1483139276277
134, -120022.29, -113474.35, -114155.34, -117147.30, -136209.16, -148052.72, -155205.55, -131583.83, 0.00, 0.00, 0.00, 1483139276281
135, -120018.70, -113470.99, -114153.06, -117144.84, -136206.72, -148049.81, -155202.66, -131579.47, 0.00, 0.10, 1.02, 1483139276285
