%OpenBCI Raw EEG Data
%Sample Rate = 250.0 Hz
%First Column = SampleIndex
%Other Columns = EEG data in microvolts followed by Accel Data (in G) interleaved with Aux Data
0, -161681.41, -155337.38, -154350.80, -154402.53, -161860.52, -154627.89, -161938.56, -38037.66, 0.01, -0.01, 0.52, 1486241650048
1, -161680.95, -155317.47, -154352.63, -154408.73, -161860.95, -154661.13, -161938.19, -38033.01, 0.00, 0.00, 0.00, 1486241650052
2, -161681.70, -155286.97, -154352.73, -154419.55, -161862.14, -154687.97, -161938.92, -38017.61, 0.00, 0.00, 0.00, 1486241650056
3, -161680.27, -155266.34, -154351.11, -154414.52, -161859.33, -154637.86, -161937.63, -38012.63, 0.00, 0.00, 0.00, 1486241650061
4, -161678.23, -155259.56, -154346.88, -154402.14, -161856.63, -154599.17, -161935.66, -38021.63, 0.00, 0.00, 0.00, 1486241650064
5, -161676.73, -155243.55, -154346.44, -154407.45, -161856.31, -154641.55, -161934.06, -38023.85, 0.00, 0.00, 0.00, 1486241650066
6, -161676.00, -155212.14, -154349.20, -154417.22, -161856.67, -154689.25, -161933.33, -38010.19, 0.00, 0.00, 0.00, 1486241650072
7, -161674.66, -155187.98, -154346.55, -154405.08, -161854.05, -154641.75, -161932.13, -38003.04, 0.02, -0.02, 1.04, 1486241650076
8, -161674.59, -155176.73, -154345.94, -154397.23, -161853.64, -154627.50, -161932.03, -38008.38, 0.00, 0.00, 0.00, 1486241650079
9, -161674.08, -155160.91, -154346.84, -154401.98, -161853.14, -154627.63, -161931.39, -38009.86, 0.00, 0.00, 0.00, 1486241650083
10, -161670.86, -155132.13, -154344.56, -154400.09, -161851.08, -154670.13, -161928.02, -37998.66, 0.00, 0.00, 0.00, 1486241650089
11, -161670.56, -155107.63, -154341.19, -154394.31, -161850.30, -154646.28, -161927.91, -37989.31, 0.00, 0.00, 0.00, 1486241650092
12, -161672.69, -155098.77, -154338.41, -154389.91, -161851.55, -154611.84, -161930.25, -37995.13, 0.00, 0.00, 0.00, 1486241650095
13, -161671.91, -155086.59, -154337.14, -154396.25, -161850.73, -154616.48, -161929.38, -38000.22, 0.00, 0.00, 0.00, 1486241650100
14, -161670.19, -155058.97, -154340.22, -154408.17, -161850.41, -154675.92, -161927.52, -37990.25, 0.00, 0.00, 0.00, 1486241650103
15, -161669.36, -155031.05, -154340.53, -154403.45, -161849.41, -154657.14, -161926.77, -37978.50, 0.00, 0.00, 0.00, 1486241650108
16, -161669.48, -155016.19, -154341.05, -154398.56, -161848.63, -154616.88, -161926.94, -37979.23, 0.00, 0.00, 0.00, 1486241650112
17, -161668.28, -155005.97, -154339.77, -154394.05, -161847.33, -154611.64, -161925.89, -37984.96, 0.02, -0.02, 1.04, 1486241650117
18, -161667.39, -154980.75, -154339.94, -154405.31, -161848.27, -154678.47, -161924.88, -37977.60, 0.00, 0.00, 0.00, 1486241650120
19, -161665.27, -154951.61, -154338.77, -154392.75, -161845.42, -154651.83, -161922.83, -37965.06, 0.00, 0.00, 0.00, 1486241650123
20, -161664.22, -154938.42, -154335.03, -154382.67, -161842.92, -154598.41, -161921.73, -37968.15, 0.00, 0.00, 0.00, 1486241650126
21, -161666.34, -154929.38, -154332.67, -154387.56, -161845.33, -154612.23, -161923.92, -37974.72, 0.00, 0.00, 0.00, 1486241650132
22, -161667.56, -154905.39, -154338.98, -154403.39, -161848.22, -154675.59, -161925.13, -37966.83, 0.00, 0.00, 0.00, 1486241650136
23, -161663.66, -154874.56, -154332.91, -154391.30, -161843.48, -154643.31, -161921.19, -37953.51, 0.00, 0.00, 0.00, 1486241650140
24, -161660.44, -154856.19, -154329.48, -154377.89, -161839.66, -154612.53, -161918.11, -37953.62, 0.00, 0.00, 0.00, 1486241650144
25, -161659.19, -154847.56, -154326.55, -154380.83, -161838.67, -154612.67, -161916.83, -37962.11, 0.00, 0.00, 0.00, 1486241650146
26, -161659.23, -154826.64, -154332.47, -154396.56, -161839.20, -154642.11, -161916.88, -37959.68, 0.00, 0.00, 0.00, 1486241650151
27, -161658.86, -154796.23, -154327.39, -154393.02, -161838.97, -154661.64, -161916.41, -37947.34, 0.02, -0.02, 1.04, 1486241650155
28, -161659.03, -154777.36, -154323.84, -154383.47, -161838.19, -154611.80, -161916.86, -37944.79, 0.00, 0.00, 0.00, 1486241650160
29, -161657.52, -154768.59, -154327.70, -154378.16, -161836.77, -154599.95, -161915.41, -37952.68, 0.00, 0.00, 0.00, 1486241650165
30, -161658.00, -154751.84, -154332.52, -154383.47, -161837.91, -154626.66, -161916.02, -37951.38, 0.00, 0.00, 0.00, 1486241650169
31, -161655.39, -154720.84, -154331.53, -154395.09, -161837.00, -154668.56, -161914.11, -37938.31, 0.00, 0.00, 0.00, 1486241650171
32, -161652.03, -154696.70, -154325.00, -154376.09, -161833.75, -154623.53, -161911.98, -37931.33, 0.00, 0.00, 0.00, 1486241650175
33, -161650.25, -154687.83, -154318.97, -154368.56, -161831.70, -154585.91, -161910.72, -37938.22, 0.00, 0.00, 0.00, 1486241650179
34, -161649.64, -154674.42, -154321.05, -154382.20, -161832.97, -154615.89, -161911.52, -37940.68, 0.00, 0.00, 0.00, 1486241650183
35, -161643.27, -154645.05, -154324.02, -154389.39, -161829.84, -154641.97, -161908.41, -37928.09, 0.00, 0.00, 0.00, 1486241650188
36, -161639.58, -154619.50, -154321.11, -154379.63, -161829.22, -154621.67, -161908.36, -37920.74, 0.00, 0.00, 0.00, 1486241650192
37, -161638.89, -154607.69, -154323.20, -154381.91, -161829.95, -154594.20, -161910.06, -37926.13, 0.02, -0.02, 1.04, 1486241650197
38, -161639.61, -154528.91, -154326.00, -154381.19, -161831.91, -154617.88, -161911.50, -37928.67, 0.00, 0.00, 0.00, 1486241650199
39, -161644.22, -154117.34, -154324.39, -154393.13, -161831.08, -154691.81, -161907.88, -37911.51, 0.00, 0.00, 0.00, 1486241650203
40, -161646.72, -154088.03, -154322.27, -154395.20, -161830.16, -154703.55, -161906.44, -37878.70, 0.00, 0.00, 0.00, 1486241650207
41, -161645.11, -154280.42, -154316.66, -154372.81, -161826.52, -154645.92, -161904.28, -37860.81, 0.00, 0.00, 0.00, 1486241650211
42, -161643.03, -154474.78, -154315.41, -154379.94, -161824.75, -154655.45, -161902.19, -37846.89, 0.00, 0.00, 0.00, 1486241650215
43, -161639.34, -154652.30, -154318.09, -154385.23, -161821.86, -154695.86, -161898.33, -37818.99, 0.00, 0.00, 0.00, 1486241650221
44, -161635.67, -154825.55, -154312.97, -154379.73, -161818.02, -154682.47, -161894.84, -37787.86, 0.00, 0.00, 0.00, 1486241650224
45, -161635.72, -155020.55, -154307.50, -154369.02, -161817.95, -154646.95, -161895.28, -37768.77, 0.00, 0.00, 0.00, 1486241650227
46, -161635.11, -155483.20, -154306.61, -154368.08, -161816.83, -154623.22, -161894.63, -37757.84, 0.00, 0.00, 0.00, 1486241650231
47, -161634.98, -155903.88, -154306.09, -154368.19, -161815.53, -154628.33, -161893.14, -37746.20, 0.02, -0.02, 1.03, 1486241650235
48, -161631.61, -155898.72, -154300.05, -154360.83, -161811.88, -154624.13, -161889.67, -37733.77, 0.00, 0.00, 0.00, 1486241650239
49, -161629.92, -155879.73, -154298.25, -154357.59, -161809.59, -154593.64, -161887.98, -37734.44, 0.00, 0.00, 0.00, 1486241650243
50, -161632.61, -155869.44, -154303.45, -154362.50, -161811.81, -154574.98, -161890.64, -37740.79, 0.00, 0.00, 0.00, 1486241650248
51, -161630.73, -155849.61, -154305.08, -154365.39, -161810.78, -154613.77, -161888.77, -37738.19, 0.00, 0.00, 0.00, 1486241650252
52, -161628.70, -155819.02, -154306.58, -154362.70, -161809.06, -154623.28, -161886.80, -37726.35, 0.00, 0.00, 0.00, 1486241650255
53, -161626.63, -155800.23, -154296.81, -154348.72, -161805.66, -154566.98, -161884.84, -37724.49, 0.00, 0.00, 0.00, 1486241650259
54, -161628.34, -155791.52, -154297.13, -154352.67, -161807.52, -154576.05, -161886.45, -37731.49, 0.00, 0.00, 0.00, 1486241650262
55, -161627.45, -155773.91, -154298.80, -154363.47, -161807.31, -154607.44, -161885.50, -37732.56, 0.00, 0.00, 0.00, 1486241650267
56, -161623.92, -155741.00, -154302.83, -154364.05, -161804.52, -154633.25, -161881.97, -37718.39, 0.00, 0.00, 0.00, 1486241650271
57, -161621.38, -155718.05, -154292.03, -154341.06, -161800.97, -154581.23, -161879.58, -37712.78, 0.02, -0.02, 1.04, 1486241650276
58, -161624.92, -155707.23, -154294.27, -154351.98, -161804.58, -154585.16, -161883.31, -37719.82, 0.00, 0.00, 0.00, 1486241650280
59, -161625.53, -155692.20, -154296.25, -154355.02, -161805.08, -154585.89, -161884.00, -37721.12, 0.00, 0.00, 0.00, 1486241650283
60, -161624.63, -155663.75, -154299.47, -154357.39, -161805.33, -154634.92, -161882.91, -37710.79, 0.00, 0.00, 0.00, 1486241650288
61, -161622.70, -155638.30, -154298.09, -154346.81, -161802.78, -154602.23, -161881.00, -37702.43, 0.00, 0.00, 0.00, 1486241650291
62, -161623.77, -155627.14, -154295.20, -154343.28, -161802.84, -154559.27, -161882.14, -37708.60, 0.00, 0.00, 0.00, 1486241650295
63, -161623.16, -155614.89, -154294.56, -154349.16, -161802.69, -154573.84, -161881.59, -37713.70, 0.00, 0.00, 0.00, 1486241650299
64, -161619.47, -155586.31, -154296.64, -154356.34, -161800.56, -154632.30, -161877.88, -37701.69, 0.00, 0.00, 0.00, 1486241650303
65, -161619.73, -155557.05, -154295.78, -154351.02, -161800.25, -154612.02, -161878.13, -37689.78, 0.00, 0.00, 0.00, 1486241650308
66, -161620.70, -155543.95, -154292.83, -154340.42, -161799.91, -154555.63, -161879.28, -37694.11, 0.00, 0.00, 0.00, 1486241650311
67, -161621.25, -155534.55, -154290.98, -154346.53, -161800.89, -154576.17, -161879.89, -37701.40, 0.02, -0.01, 1.04, 1486241650315
68, -161619.58, -155510.27, -154292.50, -154354.61, -161800.09, -154610.91, -161878.09, -37694.79, 0.00, 0.00, 0.00, 1486241650320
69, -161618.06, -155480.63, -154293.58, -154355.28, -161798.78, -154618.91, -161876.63, -37682.07, 0.00, 0.00, 0.00, 1486241650323
70, -161617.56, -155464.30, -154291.94, -154344.06, -161797.05, -154560.05, -161876.33, -37683.52, 0.00, 0.00, 0.00, 1486241650327
71, -161617.53, -155454.80, -154289.44, -154340.42, -161796.83, -154558.02, -161876.16, -37691.97, 0.00, 0.00, 0.00, 1486241650332
72, -161615.75, -155431.44, -154287.06, -154347.33, -161796.61, -154616.00, -161874.20, -37684.95, 0.00, 0.00, 0.00, 1486241650336
73, -161613.97, -155400.88, -154285.50, -154350.56, -161794.91, -154615.55, -161872.53, -37671.07, 0.00, 0.00, 0.00, 1486241650339
74, -161612.36, -155382.75, -154284.44, -154344.58, -161791.95, -154558.63, -161871.03, -37670.82, 0.00, 0.00, 0.00, 1486241650344
75, -161613.66, -155373.00, -154287.50, -154345.78, -161793.25, -154558.89, -161872.31, -37677.02, 0.00, 0.00, 0.00, 1486241650347
76, -161611.36, -155355.92, -154283.63, -154340.52, -161791.63, -154580.45, -161869.92, -37677.02, 0.00, 0.00, 0.00, 1486241650351
77, -161610.89, -155327.08, -154280.59, -154340.27, -161791.73, -154607.66, -161869.52, -37664.88, 0.02, -0.02, 1.04, 1486241650355
78, -161606.95, -155306.27, -154279.14, -154338.48, -161786.88, -154573.27, -161865.77, -37660.61, 0.00, 0.00, 0.00, 1486241650361
79, -161608.27, -155295.98, -154279.36, -154338.91, -161788.31, -154563.11, -161867.02, -37666.42, 0.00, 0.00, 0.00, 1486241650364
80, -161608.50, -155277.39, -154284.00, -154344.48, -161789.05, -154587.77, -161867.28, -37663.67, 0.00, 0.00, 0.00, 1486241650367
81, -161605.81, -155247.23, -154278.86, -154338.92, -161786.38, -154598.00, -161864.58, -37651.78, 0.00, 0.00, 0.00, 1486241650371
82, -161602.86, -155224.52, -154272.92, -154329.89, -161782.84, -154565.45, -161861.73, -37646.44, 0.00, 0.00, 0.00, 1486241650375
83, -161605.44, -155214.58, -154273.77, -154331.17, -161784.88, -154545.39, -161864.31, -37653.08, 0.00, 0.00, 0.00, 1486241650379
84, -161604.83, -155203.38, -154275.44, -154331.58, -161785.08, -154570.48, -161863.59, -37657.75, 0.00, 0.00, 0.00, 1486241650383
85, -161604.45, -155174.83, -154276.23, -154339.73, -161785.25, -154610.63, -161863.23, -37646.24, 0.00, 0.00, 0.00, 1486241650388
86, -161603.47, -155147.86, -154274.58, -154335.08, -161783.58, -154584.64, -161862.23, -37636.58, 0.00, 0.00, 0.00, 1486241650392
87, -161604.16, -155135.30, -154275.89, -154330.36, -161783.70, -154549.80, -161863.08, -37640.11, 0.01, -0.02, 1.04, 1486241650395
88, -161602.03, -155122.23, -154279.64, -154329.89, -161781.94, -154557.30, -161861.19, -37642.55, 0.00, 0.00, 0.00, 1486241650399
89, -161599.11, -155095.55, -154273.13, -154331.13, -161779.89, -154599.34, -161858.05, -37634.30, 0.00, 0.00, 0.00, 1486241650403
90, -161597.09, -155067.84, -154268.42, -154328.16, -161777.77, -154579.88, -161856.13, -37624.09, 0.00, 0.00, 0.00, 1486241650408
91, -161597.92, -155053.80, -154271.20, -154327.14, -161778.08, -154555.00, -161856.95, -37627.28, 0.00, 0.00, 0.00, 1486241650412
92, -161597.67, -155045.02, -154270.02, -154324.50, -161777.27, -154532.00, -161856.80, -37634.95, 0.00, 0.00, 0.00, 1486241650416
93, -161597.41, -155021.44, -154270.03, -154327.97, -161778.41, -154603.64, -161856.33, -37627.77, 0.00, 0.00, 0.00, 1486241650421
94, -161596.77, -154991.94, -154266.22, -154324.17, -161777.25, -154584.59, -161855.75, -37615.46, 0.00, 0.00, 0.00, 1486241650423
95, -161595.53, -154976.11, -154264.56, -154320.08, -161775.03, -154533.23, -161854.75, -37616.80, 0.00, 0.00, 0.00, 1486241650427
96, -161595.33, -154964.44, -154267.33, -154326.30, -161775.34, -154551.09, -161854.55, -37621.61, 0.00, 0.00, 0.00, 1486241650431
97, -161595.19, -154941.45, -154269.03, -154328.59, -161776.31, -154592.91, -161854.42, -37615.73, 0.02, -0.02, 1.04, 1486241650435
98, -161593.25, -154911.73, -154266.02, -154322.47, -161774.25, -154590.52, -161852.47, -37603.75, 0.00, 0.00, 0.00, 1486241650439
99, -161590.98, -154892.83, -154265.61, -154319.67, -161771.02, -154540.97, -161850.34, -37603.14, 0.00, 0.00, 0.00, 1486241650443
100, -161591.34, -154885.58, -154263.16, -154310.77, -161771.03, -154526.70, -161850.63, -37612.55, 0.00, 0.00, 0.00, 1486241650448
101, -161591.69, -154867.98, -154263.38, -154320.64, -161772.63, -154578.16, -161850.92, -37609.76, 0.00, 0.00, 0.00, 1486241650451
102, -161590.50, -154837.45, -154264.69, -154324.34, -161771.73, -154595.33, -161849.80, -37595.99, 0.00, 0.00, 0.00, 1486241650456
103, -161588.11, -154816.31, -154261.55, -154313.44, -161768.28, -154546.02, -161847.50, -37591.97, 0.00, 0.00, 0.00, 1486241650460
104, -161588.53, -154805.97, -154259.08, -154311.77, -161768.53, -154534.92, -161847.92, -37598.00, 0.00, 0.00, 0.00, 1486241650463
105, -161588.69, -154789.78, -154258.75, -154319.05, -161769.50, -154568.16, -161847.97, -37597.42, 0.00, 0.00, 0.00, 1486241650467
106, -161587.02, -154760.50, -154256.58, -154320.59, -161768.05, -154588.39, -161846.25, -37584.43, 0.00, 0.00, 0.00, 1486241650471
107, -161586.16, -154736.97, -154254.33, -154314.06, -161766.41, -154559.56, -161845.53, -37578.02, 0.02, -0.02, 1.04, 1486241650476
108, -161586.55, -154726.45, -154255.69, -154313.58, -161766.19, -154524.56, -161845.91, -37585.30, 0.00, 0.00, 0.00, 1486241650479
109, -161585.36, -154712.52, -154258.13, -154321.16, -161765.58, -154548.77, -161844.66, -37589.13, 0.00, 0.00, 0.00, 1486241650484
110, -161584.88, -154683.81, -154257.45, -154319.05, -161766.56, -154595.45, -161844.45, -37577.44, 0.00, 0.00, 0.00, 1486241650487
111, -161584.53, -154657.39, -154256.25, -154315.52, -161766.44, -154575.36, -161844.94, -37567.36, 0.00, 0.00, 0.00, 1486241650491
112, -161582.70, -154644.61, -154258.53, -154305.83, -161763.72, -154522.91, -161843.59, -37570.46, 0.00, 0.00, 0.00, 1486241650495
113, -161581.34, -154633.92, -154256.58, -154305.94, -161763.02, -154534.61, -161842.56, -37574.38, 0.00, 0.00, 0.00, 1486241650500
114, -161578.45, -154607.38, -154257.86, -154320.38, -161763.69, -154595.14, -161841.73, -37564.03, 0.00, 0.00, 0.00, 1486241650504
115, -161573.45, -154578.78, -154259.53, -154314.53, -161760.59, -154562.42, -161839.67, -37552.88, 0.00, 0.00, 0.00, 1486241650506
116, -161571.77, -154567.98, -154250.36, -154297.27, -161759.56, -154525.92, -161839.44, -37558.02, 0.00, 0.00, 0.00, 1486241650510
117, -161569.72, -154558.64, -154250.92, -154311.13, -161758.55, -154522.55, -161838.84, -37564.18, 0.00, 0.00, 0.00, 1486241650515
118, -161564.91, -154530.14, -154251.42, -154314.30, -161758.03, -154566.13, -161838.05, -37555.71, 0.02, -0.02, 1.04, 1486241650520
119, -161563.70, -154258.23, -154249.81, -154308.38, -161755.48, -154586.09, -161834.48, -37540.02, 0.00, 0.00, 0.00, 1486241650523
120, -161571.34, -153970.34, -154250.05, -154309.00, -161755.05, -154574.64, -161833.91, -37523.82, 0.00, 0.00, 0.00, 1486241650527
121, -161572.19, -154126.52, -154249.14, -154308.89, -161755.13, -154586.63, -161833.16, -37510.61, 0.00, 0.00, 0.00, 1486241650531
122, -161571.28, -154307.81, -154251.59, -154320.39, -161755.19, -154641.91, -161831.98, -37486.13, 0.00, 0.00, 0.00, 1486241650535
123, -161568.17, -154478.41, -154252.42, -154321.48, -161751.91, -154632.84, -161828.95, -37452.78, 0.00, 0.00, 0.00, 1486241650538
124, -161564.55, -154664.09, -154244.27, -154303.14, -161746.73, -154562.36, -161825.58, -37432.55, 0.00, 0.00, 0.00, 1486241650543
125, -161563.83, -154860.50, -154238.67, -154298.42, -161746.41, -154567.36, -161825.11, -37420.15, 0.00, 0.00, 0.00, 1486241650547
126, -161561.52, -155127.22, -154236.78, -154303.27, -161745.39, -154601.02, -161823.11, -37398.80, 0.00, 0.00, 0.00, 1486241650552
127, -161557.53, -155687.81, -154231.88, -154293.61, -161739.92, -154577.33, -161817.81, -37376.77, 0.00, 0.00, 0.00, 1486241650556
128, -161557.44, -155838.41, -154228.59, -154282.59, -161738.02, -154526.05, -161817.33, -37372.16, 0.01, -0.02, 1.03, 1486241650561
129, -161558.78, -155827.33, -154228.69, -154283.22, -161739.09, -154514.77, -161818.63, -37380.96, 0.00, 0.00, 0.00, 1486241650563
130, -161558.63, -155809.78, -154232.59, -154294.05, -161739.25, -154526.80, -161818.56, -37382.04, 0.00, 0.00, 0.00, 1486241650566
131, -161556.55, -155779.11, -154230.19, -154295.56, -161737.94, -154557.88, -161816.45, -37372.70, 0.00, 0.00, 0.00, 1486241650571
132, -161554.52, -155755.36, -154230.63, -154291.42, -161735.45, -154528.95, -161814.48, -37366.84, 0.00, 0.00, 0.00, 1486241650576
133, -161556.41, -155745.08, -154230.56, -154283.67, -161737.13, -154515.86, -161816.41, -37373.30, 0.00, 0.00, 0.00, 1486241650579
134, -161557.52, -155731.80, -154227.52, -154283.38, -161738.09, -154514.25, -161817.66, -37376.74, 0.00, 0.00, 0.00, 1486241650583
135, -161553.39, -155703.23, -154231.45, -154291.53, -161734.80, -154551.78, -161813.42, -37366.41, 0.00, 0.00, 0.00, 1486241650587
136, -161551.81, -155675.31, -154228.17, -154279.78, -161732.80, -154534.30, -161811.97, -37358.01, 0.00, 0.00, 0.00, 1486241650591
137, -161551.91, -155663.16, -154225.41, -154275.58, -161732.09, -154496.69, -161812.00, -37363.09, 0.00, 0.00, 0.00, 1486241650594
138, -161551.61, -155651.59, -154229.78, -154280.97, -161732.45, -154518.86, -161811.67, -37367.13, 0.02, -0.01, 1.04, 1486241650598
139, -161550.41, -155624.27, -154226.86, -154286.27, -161732.08, -154550.13, -161810.44, -37358.30, 0.00, 0.00, 0.00, 1486241650603
140, -161551.08, -155596.20, -154228.02, -154281.64, -161732.80, -154552.58, -161811.17, -37348.24, 0.00, 0.00, 0.00, 1486241650608
141, -161551.27, -155582.70, -154222.67, -154273.83, -161731.56, -154494.00, -161811.63, -37352.56, 0.00, 0.00, 0.00, 1486241650611
142, -161550.89, -155572.47, -154224.86, -154280.66, -161731.55, -154503.95, -161811.25, -37359.31, 0.00, 0.00, 0.00, 1486241650615
143, -161547.16, -155547.81, -154225.38, -154279.72, -161728.41, -154530.09, -161807.48, -37351.66, 0.00, 0.00, 0.00, 1486241650618
144, -161545.27, -155515.66, -154227.14, -154291.58, -161727.09, -154560.39, -161805.56, -37336.44, 0.00, 0.00, 0.00, 1486241650622
145, -161547.66, -155497.53, -154227.41, -154285.30, -161728.23, -154505.25, -161808.23, -37334.43, 0.00, 0.00, 0.00, 1486241650627
146, -161548.23, -155488.83, -154222.77, -154276.52, -161728.86, -154498.38, -161808.86, -37341.80, 0.00, 0.00, 0.00, 1486241650632
147, -161544.81, -155469.05, -154221.36, -154276.88, -161725.86, -154516.73, -161805.44, -37338.77, 0.00, 0.00, 0.00, 1486241650635
148, -161541.84, -155440.69, -154219.30, -154271.31, -161723.22, -154532.00, -161802.47, -37328.20, 0.02, -0.01, 1.04, 1486241650639
149, -161541.91, -155422.16, -154218.06, -154267.64, -161722.67, -154502.36, -161802.66, -37325.60, 0.00, 0.00, 0.00, 1486241650644
150, -161543.19, -155413.08, -154215.31, -154268.20, -161723.94, -154499.14, -161803.88, -37332.24, 0.00, 0.00, 0.00, 1486241650647
151, -161542.58, -155392.78, -154217.91, -154279.69, -161723.84, -154524.56, -161803.25, -37331.05, 0.00, 0.00, 0.00, 1486241650650
152, -161540.13, -155360.88, -154214.33, -154277.97, -161722.52, -154564.09, -161800.78, -37316.84, 0.00, 0.00, 0.00, 1486241650654
153, -161540.50, -155338.41, -154210.83, -154267.88, -161721.95, -154514.63, -161801.39, -37310.18, 0.00, 0.00, 0.00, 1486241650659
154, -161538.73, -155329.52, -154209.34, -154266.58, -161719.00, -154464.67, -161799.78, -37318.14, 0.00, 0.00, 0.00, 1486241650664
155, -161537.45, -155314.16, -154211.08, -154273.02, -161718.86, -154513.78, -161798.34, -37319.72, 0.00, 0.00, 0.00, 1486241650667
156, -161538.02, -155285.41, -154212.30, -154270.69, -161720.03, -154542.66, -161798.95, -37309.04, 0.00, 0.00, 0.00, 1486241650671
157, -161536.03, -155262.66, -154208.05, -154265.08, -161717.22, -154504.06, -161797.03, -37302.58, 0.00, 0.00, 0.00, 1486241650675
158, -161536.25, -155252.75, -154209.34, -154265.80, -161716.70, -154475.38, -161797.30, -37307.79, 0.02, -0.01, 1.04, 1486241650678
159, -161535.02, -155238.89, -154211.91, -154267.33, -161716.45, -154504.28, -161795.98, -37311.05, 0.00, 0.00, 0.00, 1486241650683
160, -161534.28, -155209.53, -154212.19, -154272.22, -161716.77, -154545.98, -161795.22, -37299.83, 0.00, 0.00, 0.00, 1486241650688
161, -161532.19, -155183.44, -154204.39, -154260.73, -161713.86, -154509.80, -161793.28, -37291.40, 0.00, 0.00, 0.00, 1486241650692
162, -161531.45, -155170.81, -154204.28, -154262.86, -161712.73, -154485.63, -161792.58, -37296.23, 0.00, 0.00, 0.00, 1486241650696
163, -161531.22, -155159.45, -154207.66, -154267.08, -161712.00, -154476.20, -161792.63, -37301.28, 0.00, 0.00, 0.00, 1486241650698
164, -161531.30, -155134.52, -154208.84, -154266.28, -161713.55, -154533.34, -161792.52, -37292.54, 0.00, 0.00, 0.00, 1486241650703
165, -161529.66, -155105.98, -154206.02, -154264.34, -161711.64, -154518.83, -161790.89, -37281.08, 0.00, 0.00, 0.00, 1486241650707
166, -161529.70, -155091.63, -154204.70, -154260.25, -161710.63, -154476.72, -161791.11, -37282.91, 0.00, 0.00, 0.00, 1486241650711
167, -161529.80, -155081.11, -154205.94, -154263.22, -161711.36, -154499.55, -161791.16, -37288.05, 0.00, 0.00, 0.00, 1486241650714
168, -161528.47, -155056.61, -154204.17, -154261.83, -161710.64, -154522.05, -161789.75, -37278.37, 0.02, -0.01, 1.04, 1486241650719
169, -161527.09, -155026.53, -154203.39, -154263.08, -161709.64, -154530.81, -161788.25, -37264.87, 0.00, 0.00, 0.00, 1486241650723
170, -161527.22, -155009.95, -154197.91, -154249.81, -161708.77, -154485.31, -161788.53, -37264.47, 0.00, 0.00, 0.00, 1486241650728
171, -161527.53, -155001.77, -154202.83, -154255.44, -161708.83, -154472.00, -161789.08, -37271.82, 0.00, 0.00, 0.00, 1486241650731
172, -161525.80, -154982.41, -154203.56, -154255.33, -161707.64, -154503.33, -161787.38, -37267.87, 0.00, 0.00, 0.00, 1486241650735
173, -161522.89, -154952.38, -154200.75, -154261.28, -161705.64, -154533.41, -161784.41, -37254.03, 0.00, 0.00, 0.00, 1486241650739
174, -161522.73, -154931.58, -154199.89, -154261.55, -161704.97, -154504.13, -161784.36, -37251.10, 0.00, 0.00, 0.00, 1486241650743
175, -161521.72, -154922.70, -154195.11, -154250.34, -161702.73, -154453.80, -161783.55, -37259.21, 0.00, 0.00, 0.00, 1486241650747
176, -161520.94, -154905.00, -154195.19, -154257.56, -161703.00, -154509.92, -161782.64, -37258.08, 0.00, 0.00, 0.00, 1486241650750
177, -161520.83, -154872.91, -154200.28, -154267.11, -161703.94, -154538.45, -161782.45, -37243.41, 0.00, 0.00, 0.00, 1486241650754
178, -161519.09, -154850.84, -154196.13, -154256.25, -161700.72, -154477.34, -161780.94, -37237.25, 0.02, -0.02, 1.04, 1486241650760
179, -161519.36, -154841.97, -154193.61, -154252.98, -161700.45, -154460.30, -161781.23, -37244.80, 0.00, 0.00, 0.00, 1486241650764
180, -161518.33, -154827.53, -154194.64, -154253.88, -161700.03, -154484.09, -161780.22, -37248.71, 0.00, 0.00, 0.00, 1486241650766
181, -161516.47, -154798.81, -154194.33, -154260.77, -161699.28, -154525.92, -161778.33, -37237.65, 0.00, 0.00, 0.00, 1486241650771
182, -161516.31, -154774.16, -154191.72, -154253.72, -161698.59, -154501.17, -161778.20, -37229.67, 0.00, 0.00, 0.00, 1486241650775
183, -161516.20, -154764.23, -154188.67, -154245.56, -161697.59, -154461.64, -161778.13, -37236.08, 0.00, 0.00, 0.00, 1486241650779
184, -161515.02, -154750.86, -154191.20, -154248.36, -161696.84, -154478.91, -161777.06, -37238.96, 0.00, 0.00, 0.00, 1486241650783
185, -161512.27, -154722.17, -154191.06, -154255.39, -161695.11, -154516.39, -161774.28, -37227.54, 0.00, 0.00, 0.00, 1486241650788
186, -161509.19, -154695.64, -154187.00, -154249.61, -161691.22, -154486.84, -161771.33, -37217.71, 0.00, 0.00, 0.00, 1486241650792
187, -161510.73, -154682.78, -154186.53, -154242.66, -161692.36, -154464.66, -161773.00, -37220.93, 0.00, 0.00, 0.00, 1486241650795
188, -161512.56, -154673.11, -154188.09, -154245.36, -161694.30, -154470.08, -161774.75, -37226.58, 0.01, -0.01, 1.04, 1486241650799
189, -161509.94, -154649.50, -154187.56, -154254.03, -161692.61, -154504.28, -161772.16, -37217.80, 0.00, 0.00, 0.00, 1486241650806
190, -161509.05, -154620.52, -154189.13, -154250.03, -161691.94, -154506.78, -161771.45, -37204.34, 0.00, 0.00, 0.00, 1486241650806
191, -161510.28, -154605.58, -154185.17, -154234.78, -161692.27, -154463.38, -161772.83, -37206.64, 0.00, 0.00, 0.00, 1486241650811
192, -161510.64, -154594.92, -154186.16, -154243.92, -161693.31, -154481.73, -161773.52, -37211.00, 0.00, 0.00, 0.00, 1486241650816
193, -161506.88, -154571.19, -154187.45, -154242.31, -161691.00, -154504.78, -161770.52, -37202.73, 0.00, 0.00, 0.00, 1486241650820
194, -161502.64, -154541.81, -154183.22, -154242.05, -161688.17, -154502.36, -161767.81, -37190.89, 0.00, 0.00, 0.00, 1486241650823
195, -161499.84, -154525.58, -154181.19, -154242.39, -161685.45, -154449.16, -161766.66, -37190.57, 0.00, 0.00, 0.00, 1486241650827
196, -161498.92, -154518.78, -154179.48, -154238.00, -161685.05, -154439.11, -161766.70, -37200.36, 0.00, 0.00, 0.00, 1486241650831
197, -161496.98, -154497.70, -154183.69, -154244.89, -161687.53, -154507.30, -161767.66, -37198.20, 0.00, 0.00, 0.00, 1486241650834
198, -161489.52, -154465.95, -154180.58, -154241.83, -161684.16, -154499.92, -161765.02, -37185.16, 0.02, -0.01, 1.05, 1486241650839
199, -161484.44, -154445.78, -154181.56, -154230.78, -161681.38, -154464.31, -161763.50, -37182.15, 0.00, 0.00, 0.00, 1486241650844
200, -161486.39, -154306.02, -154179.47, -154225.95, -161681.61, -154461.30, -161763.64, -37186.13, 0.00, 0.00, 0.00, 1486241650847
201, -161494.20, -153914.67, -154183.58, -154244.67, -161681.94, -154526.64, -161761.61, -37172.31, 0.00, 0.00, 0.00, 1486241650851
202, -161494.19, -153977.36, -154181.14, -154247.44, -161680.48, -154562.78, -161758.77, -37137.73, 0.00, 0.00, 0.00, 1486241650854
203, -161491.53, -154159.02, -154175.48, -154234.34, -161676.55, -154517.56, -161755.86, -37112.48, 0.00, 0.00, 0.00, 1486241650858
204, -161491.33, -154354.02, -154172.89, -154229.48, -161676.00, -154502.22, -161755.41, -37101.77, 0.00, 0.00, 0.00, 1486241650862
205, -161489.77, -154543.00, -154173.55, -154237.52, -161675.11, -154522.80, -161754.03, -37083.02, 0.00, 0.00, 0.00, 1486241650866
206, -161485.72, -154715.95, -154170.22, -154239.45, -161672.16, -154559.92, -161750.34, -37050.45, 0.00, 0.00, 0.00, 1486241650871
207, -161482.77, -154906.80, -154164.64, -154230.56, -161668.94, -154522.92, -161747.98, -37021.44, 0.00, 0.00, 0.00, 1486241650876
208, -161481.05, -155401.42, -154157.42, -154214.78, -161665.42, -154455.59, -161746.00, -37006.98, 0.02, -0.01, 1.04, 1486241650878
209, -161480.98, -155782.36, -154156.72, -154217.95, -161664.44, -154457.77, -161744.70, -37006.08, 0.00, 0.00, 0.00, 1486241650883
210, -161480.66, -155769.88, -154163.08, -154220.92, -161665.13, -154497.06, -161744.33, -36996.43, 0.00, 0.00, 0.00, 1486241650887
211, -161480.13, -155740.92, -154163.55, -154223.67, -161664.22, -154476.14, -161744.09, -36986.50, 0.00, 0.00, 0.00, 1486241650891
212, -161479.38, -155728.48, -154157.42, -154209.73, -161662.55, -154426.44, -161743.41, -36991.20, 0.00, 0.00, 0.00, 1486241650894
213, -161480.17, -155718.63, -154157.72, -154209.89, -161663.50, -154438.17, -161744.23, -36995.93, 0.00, 0.00, 0.00, 1486241650900
214, -161478.63, -155693.66, -154155.33, -154215.47, -161662.55, -154468.41, -161742.67, -36988.61, 0.00, 0.00, 0.00, 1486241650904
215, -161474.72, -155664.41, -154151.17, -154211.59, -161658.92, -154467.02, -161738.95, -36977.76, 0.00, 0.00, 0.00, 1486241650906
216, -161474.67, -155646.52, -154156.38, -154212.66, -161658.34, -154442.59, -161739.03, -36977.43, 0.00, 0.00, 0.00, 1486241650911
217, -161476.64, -155634.50, -154155.53, -154208.38, -161660.22, -154437.03, -161741.17, -36983.78, 0.00, 0.00, 0.00, 1486241650915
218, -161475.30, -155611.55, -154153.20, -154210.56, -161659.72, -154469.23, -161739.88, -36977.88, 0.01, -0.01, 1.04, 1486241650919
219, -161471.80, -155582.91, -154149.73, -154212.64, -161656.77, -154478.88, -161736.41, -36965.40, 0.00, 0.00, 0.00, 1486241650923
220, -161471.98, -155565.77, -154149.05, -154205.69, -161655.44, -154417.22, -161736.81, -36964.91, 0.00, 0.00, 0.00, 1486241650927
221, -161471.66, -155557.72, -154149.05, -154203.83, -161655.05, -154416.63, -161736.56, -36973.43, 0.00, 0.00, 0.00, 1486241650931
222, -161472.61, -155537.45, -154153.47, -154210.06, -161657.44, -154475.78, -161737.42, -36969.36, 0.00, 0.00, 0.00, 1486241650934
223, -161471.23, -155505.84, -154150.28, -154211.11, -161656.50, -154483.83, -161736.13, -36954.85, 0.00, 0.00, 0.00, 1486241650939
224, -161467.70, -155484.31, -154146.72, -154202.27, -161651.86, -154429.52, -161732.91, -36949.91, 0.00, 0.00, 0.00, 1486241650943
225, -161467.55, -155475.42, -154145.25, -154200.28, -161651.45, -154415.88, -161732.81, -36958.09, 0.00, 0.00, 0.00, 1486241650947
226, -161466.88, -155457.52, -154148.63, -154210.78, -161651.83, -154452.53, -161732.25, -36958.81, 0.00, 0.00, 0.00, 1486241650951
227, -161465.52, -155426.81, -154147.38, -154202.98, -161651.00, -154472.83, -161731.05, -36946.89, 0.00, 0.00, 0.00, 1486241650954
228, -161465.11, -155405.50, -154142.97, -154200.70, -161649.86, -154436.67, -161730.83, -36942.83, 0.02, -0.02, 1.04, 1486241650960
229, -161465.23, -155395.45, -154146.83, -154202.48, -161650.02, -154425.66, -161731.05, -36948.21, 0.00, 0.00, 0.00, 1486241650963
230, -161464.58, -155381.03, -154147.30, -154204.61, -161649.55, -154435.19, -161730.47, -36948.62, 0.00, 0.00, 0.00, 1486241650966
231, -161460.88, -155352.31, -154144.80, -154203.39, -161646.63, -154466.83, -161726.98, -36936.35, 0.00, 0.00, 0.00, 1486241650970
232, -161459.09, -155326.72, -154138.61, -154190.70, -161644.39, -154440.47, -161725.42, -36926.78, 0.00, 0.00, 0.00, 1486241650975
233, -161460.59, -155315.83, -154138.00, -154191.67, -161645.73, -154422.28, -161727.03, -36931.25, 0.00, 0.00, 0.00, 1486241650979
234, -161459.20, -155302.55, -154140.38, -154200.48, -161644.61, -154426.88, -161725.73, -36935.34, 0.00, 0.00, 0.00, 1486241650983
235, -161457.08, -155275.48, -154138.08, -154202.02, -161643.08, -154454.55, -161723.73, -36926.33, 0.00, 0.00, 0.00, 1486241650988
236, -161453.70, -155249.64, -154138.66, -154190.53, -161639.70, -154437.50, -161720.47, -36918.06, 0.00, 0.00, 0.00, 1486241650991
237, -161453.89, -155237.53, -154134.73, -154183.73, -161639.42, -154410.50, -161720.78, -36923.38, 0.00, 0.00, 0.00, 1486241650994
238, -161454.94, -155227.00, -154134.98, -154190.47, -161640.66, -154418.77, -161721.95, -36927.79, 0.02, -0.01, 1.04, 1486241650999
239, -161454.13, -155201.20, -154136.17, -154201.02, -161641.19, -154464.11, -161721.30, -36916.23, 0.00, 0.00, 0.00, 1486241651003
240, -161451.39, -155169.63, -154134.63, -154197.80, -161638.44, -154454.39, -161718.94, -36900.14, 0.00, 0.00, 0.00, 1486241651007
241, -161451.97, -155154.88, -154132.17, -154189.64, -161638.22, -154415.56, -161719.72, -36900.65, 0.00, 0.00, 0.00, 1486241651010
242, -161453.58, -155145.17, -154135.14, -154188.39, -161639.97, -154415.25, -161721.50, -36906.26, 0.00, 0.00, 0.00, 1486241651016
243, -161452.36, -155123.05, -154132.06, -154192.81, -161639.89, -154452.69, -161720.47, -36900.20, 0.00, 0.00, 0.00, 1486241651019
244, -161451.06, -155094.56, -154131.41, -154195.50, -161639.03, -154459.83, -161719.61, -36889.47, 0.00, 0.00, 0.00, 1486241651022
245, -161451.31, -155076.67, -154132.50, -154189.69, -161638.25, -154409.80, -161720.20, -36889.52, 0.00, 0.00, 0.00, 1486241651027
246, -161448.75, -155067.34, -154133.80, -154185.48, -161635.66, -154395.34, -161717.75, -36897.79, 0.00, 0.00, 0.00, 1486241651031
247, -161447.09, -155047.88, -154130.16, -154188.75, -161635.63, -154451.70, -161716.08, -36895.69, 0.00, 0.00, 0.00, 1486241651035
248, -161445.23, -155015.69, -154132.44, -154196.36, -161634.33, -154459.64, -161714.94, -36880.73, 0.02, -0.01, 1.04, 1486241651039
249, -161442.16, -154995.13, -154124.80, -154179.83, -161630.80, -154415.88, -161712.11, -36877.49, 0.00, 0.00, 0.00, 1486241651044
250, -161444.56, -154986.70, -154128.28, -154179.59, -161633.03, -154399.63, -161714.91, -36884.49, 0.00, 0.00, 0.00, 1486241651046
251, -161444.25, -154970.67, -154126.38, -154184.81, -161633.58, -154427.55, -161714.83, -36883.53, 0.00, 0.00, 0.00, 1486241651050
252, -161442.28, -154943.00, -154127.23, -154191.42, -161632.72, -154456.86, -161713.39, -36872.15, 0.00, 0.00, 0.00, 1486241651055
253, -161440.81, -154919.58, -154124.69, -154181.75, -161631.31, -154429.27, -161712.42, -36865.82, 0.00, 0.00, 0.00, 1486241651059
254, -161439.31, -154910.14, -154123.81, -154171.95, -161628.97, -154379.83, -161711.27, -36871.55, 0.00, 0.00, 0.00, 1486241651063
255, -161438.63, -154895.59, -154126.67, -154179.73, -161629.48, -154427.14, -161710.86, -36873.58, 0.00, 0.00, 0.00, 1486241651067
0, -161436.41, -154863.45, -154131.45, -154189.55, -161629.30, -154467.02, -161709.59, -36859.05, 0.00, 0.00, 0.00, 1486241651070
1, -161432.77, -154837.86, -154122.14, -154180.67, -161625.25, -154414.45, -161706.89, -36849.66, 0.00, 0.00, 0.00, 1486241651074
2, -161433.95, -154827.25, -154120.09, -154179.58, -161626.59, -154402.47, -161708.41, -36854.20, 0.02, -0.02, 1.04, 1486241651078
3, -161433.03, -154815.86, -154123.94, -154184.58, -161626.20, -154404.48, -161708.16, -36856.86, 0.00, 0.00, 0.00, 1486241651081
4, -161431.05, -154790.58, -154124.89, -154183.38, -161626.73, -154458.91, -161707.17, -36845.93, 0.00, 0.00, 0.00, 1486241651086
5, -161427.84, -154763.52, -154120.06, -154176.88, -161624.34, -154427.02, -161705.52, -36834.78, 0.00, 0.00, 0.00, 1486241651090
6, -161424.94, -154750.55, -154121.36, -154170.48, -161620.63, -154370.11, -161703.33, -36838.18, 0.00, 0.00, 0.00, 1486241651095
7, -161424.88, -154739.56, -154121.84, -154169.63, -161622.19, -154405.55, -161704.00, -36842.94, 0.00, 0.00, 0.00, 1486241651099
8, -161422.38, -154713.55, -154121.13, -154179.52, -161623.16, -154450.92, -161703.84, -36832.86, 0.00, 0.00, 0.00, 1486241651102
9, -161417.34, -154683.63, -154116.86, -154174.11, -161621.25, -154439.75, -161702.11, -36819.11, 0.00, 0.00, 0.00, 1486241651106
10, -161415.28, -154668.02, -154114.17, -154169.61, -161620.97, -154409.80, -161702.48, -36818.64, 0.00, 0.00, 0.00, 1486241651111
11, -161414.30, -154658.33, -154118.64, -154177.66, -161620.91, -154390.05, -161703.16, -36824.50, 0.00, 0.00, 0.00, 1486241651114
12, -161407.50, -154637.23, -154119.30, -154174.11, -161620.63, -154425.38, -161701.72, -36819.69, 0.02, -0.02, 1.03, 1486241651119
13, -161390.70, -154608.48, -154112.86, -154167.23, -161618.58, -154432.38, -161699.63, -36807.69, 0.00, 0.00, 0.00, 1486241651123
14, -161375.30, -154591.67, -154109.03, -154160.89, -161615.83, -154400.61, -161697.63, -36806.84, 0.00, 0.00, 0.00, 1486241651126
15, -161369.69, -154582.45, -154111.00, -154168.06, -161614.47, -154374.83, -161697.03, -36812.70, 0.00, 0.00, 0.00, 1486241651130
16, -161353.73, -154561.13, -154110.56, -154172.77, -161615.98, -154424.48, -161697.47, -36808.09, 0.00, 0.00, 0.00, 1486241651134
17, -161327.44, -154529.83, -154108.66, -154164.83, -161612.67, -154435.78, -161693.81, -36795.53, 0.00, 0.00, 0.00, 1486241651138
18, -161309.81, -154508.58, -154111.86, -154168.09, -161614.23, -154420.91, -161696.30, -36792.29, 0.00, 0.00, 0.00, 1486241651143
19, -161302.30, -154499.75, -154112.50, -154163.48, -161616.11, -154389.50, -161698.86, -36797.81, 0.00, 0.00, 0.00, 1486241651146
20, -161291.95, -154484.69, -154112.45, -154170.58, -161612.94, -154395.11, -161695.55, -36798.50, 0.00, 0.00, 0.00, 1486241651150
21, -161268.80, -154455.13, -154111.77, -154175.47, -161612.36, -154439.53, -161694.14, -36785.98, 0.00, 0.00, 0.00, 1486241651154
22, -161248.42, -154432.80, -154105.92, -154164.47, -161609.55, -154399.44, -161692.80, -36781.70, 0.00, 0.00, 0.00, 1486241651158
23, -161240.27, -154421.48, -154109.78, -154160.22, -161607.84, -154371.69, -161691.95, -36786.97, 0.02, -0.02, 1.04, 1486241651162
24, -161229.61, -154405.47, -154109.78, -154169.03, -161610.42, -154415.33, -161693.59, -36786.66, 0.00, 0.00, 0.00, 1486241651165
25, -161205.72, -154317.91, -154107.14, -154171.38, -161609.33, -154434.98, -161692.56, -36772.89, 0.00, 0.00, 0.00, 1486241651171
26, -161178.92, -153910.11, -154104.08, -154167.36, -161609.13, -154447.75, -161691.19, -36755.32, 0.00, 0.00, 0.00, 1486241651175
27, -161153.03, -153882.55, -154103.63, -154167.78, -161608.47, -154433.81, -161690.45, -36741.08, 0.00, 0.00, 0.00, 1486241651179
28, -161127.95, -154075.83, -154102.52, -154166.03, -161607.00, -154438.95, -161689.09, -36725.28, 0.00, 0.00, 0.00, 1486241651182
29, -161088.72, -154252.78, -154101.86, -154171.05, -161603.39, -154490.14, -161684.59, -36695.28, 0.00, 0.00, 0.00, 1486241651186
30, -161044.41, -154428.63, -154101.09, -154167.59, -161597.11, -154449.92, -161679.61, -36665.49, 0.00, 0.00, 0.00, 1486241651191
31, -161013.38, -154617.41, -154098.70, -154162.86, -161596.14, -154434.92, -161678.80, -36645.95, 0.00, 0.00, 0.00, 1486241651195
32, -160984.95, -154814.48, -154095.31, -154159.91, -161595.08, -154432.11, -161677.34, -36627.38, 0.00, 0.00, 0.00, 1486241651200
33, -160946.61, -155247.86, -154095.09, -154160.94, -161592.53, -154457.39, -161674.13, -36599.97, 0.01, -0.02, 1.03, 1486241651203
34, -160914.09, -155678.05, -154086.70, -154145.66, -161589.52, -154405.64, -161672.39, -36581.78, 0.00, 0.00, 0.00, 1486241651207
35, -160900.81, -155693.47, -154089.25, -154143.84, -161589.47, -154365.30, -161673.72, -36581.02, 0.00, 0.00, 0.00, 1486241651210
36, -160896.28, -155684.36, -154086.97, -154143.30, -161590.52, -154356.14, -161674.86, -36590.52, 0.00, 0.00, 0.00, 1486241651215
37, -160878.98, -155661.59, -154088.77, -154154.19, -161591.13, -154409.91, -161674.39, -36585.80, 0.00, 0.00, 0.00, 1486241651218
38, -160851.97, -155631.50, -154085.14, -154149.94, -161587.34, -154398.63, -161670.56, -36572.08, 0.00, 0.00, 0.00, 1486241651222
39, -160835.30, -155612.19, -154087.59, -154143.97, -161586.09, -154370.02, -161670.16, -36569.40, 0.00, 0.00, 0.00, 1486241651227
40, -160826.88, -155601.08, -154086.23, -154137.27, -161586.72, -154361.13, -161670.94, -36574.88, 0.00, 0.00, 0.00, 1486241651232
41, -160810.67, -155581.38, -154082.33, -154143.69, -161586.25, -154397.44, -161669.17, -36572.01, 0.00, 0.00, 0.00, 1486241651235
42, -160782.22, -155550.17, -154083.13, -154148.38, -161583.59, -154407.20, -161666.56, -36558.24, 0.00, 0.00, 0.00, 1486241651239
43, -160764.33, -155529.20, -154077.98, -154134.25, -161581.58, -154359.00, -161665.88, -36553.91, 0.02, -0.02, 1.03, 1486241651242
44, -160759.94, -155521.89, -154077.86, -154129.73, -161583.23, -154348.09, -161667.77, -36562.13, 0.00, 0.00, 0.00, 1486241651246
45, -160747.19, -155506.41, -154080.50, -154142.08, -161583.27, -154379.20, -161667.02, -36561.39, 0.00, 0.00, 0.00, 1486241651250
46, -160720.25, -155475.80, -154081.56, -154137.83, -161580.06, -154399.56, -161663.52, -36548.05, 0.00, 0.00, 0.00, 1486241651254
47, -160697.50, -155452.41, -154077.75, -154129.52, -161580.16, -154381.08, -161663.97, -36541.79, 0.00, 0.00, 0.00, 1486241651259
48, -160687.20, -155440.86, -154075.73, -154128.80, -161580.06, -154350.88, -161664.75, -36545.46, 0.00, 0.00, 0.00, 1486241651263
49, -160675.28, -155426.16, -154080.06, -154142.55, -161581.36, -154379.38, -161665.27, -36545.82, 0.00, 0.00, 0.00, 1486241651266
50, -160648.06, -155396.34, -154081.23, -154144.52, -161579.69, -154404.03, -161662.81, -36532.07, 0.00, 0.00, 0.00, 1486241651270
51, -160624.86, -155370.81, -154075.16, -154125.27, -161575.34, -154367.53, -161659.56, -36522.39, 0.00, 0.00, 0.00, 1486241651274
52, -160617.70, -155362.08, -154071.39, -154123.81, -161575.14, -154337.31, -161660.14, -36529.16, 0.00, 0.00, 0.00, 1486241651278
53, -160608.16, -155349.89, -154074.89, -154134.61, -161576.44, -154364.88, -161660.84, -36535.91, 0.02, -0.01, 1.04, 1486241651283
54, -160582.28, -155321.91, -154079.28, -154135.81, -161577.61, -154410.78, -161660.78, -36526.53, 0.00, 0.00, 0.00, 1486241651288
55, -160555.13, -155294.58, -154074.41, -154128.66, -161574.36, -154388.70, -161658.30, -36515.06, 0.00, 0.00, 0.00, 1486241651291
56, -160541.17, -155279.83, -154070.92, -154123.19, -161574.23, -154356.27, -161658.56, -36515.53, 0.00, 0.00, 0.00, 1486241651295
57, -160533.36, -155269.27, -154072.14, -154130.41, -161575.14, -154346.33, -161659.91, -36520.74, 0.00, 0.00, 0.00, 1486241651298
58, -160511.20, -155245.27, -154071.59, -154135.44, -161575.09, -154393.97, -161658.73, -36512.78, 0.00, 0.00, 0.00, 1486241651302
59, -160482.38, -155215.25, -154072.48, -154131.61, -161572.81, -154386.05, -161656.89, -36500.80, 0.00, 0.00, 0.00, 1486241651307
60, -160468.70, -155199.91, -154074.97, -154120.45, -161572.80, -154359.17, -161657.75, -36502.95, 0.00, 0.00, 0.00, 1486241651310
61, -160461.69, -155191.08, -154074.19, -154120.66, -161571.50, -154334.20, -161656.92, -36510.68, 0.00, 0.00, 0.00, 1486241651315
62, -160443.08, -155169.98, -154075.38, -154125.05, -161570.86, -154383.94, -161655.28, -36507.59, 0.00, 0.00, 0.00, 1486241651319
63, -160414.52, -155139.56, -154073.97, -154129.28, -161568.23, -154386.88, -161652.44, -36496.02, 0.02, -0.01, 1.05, 1486241651322
64, -160396.02, -155120.08, -154068.31, -154121.91, -161565.94, -154337.73, -161651.61, -36492.35, 0.00, 0.00, 0.00, 1486241651327
65, -160388.92, -155111.58, -154066.28, -154125.06, -161566.89, -154346.66, -161652.22, -36497.25, 0.00, 0.00, 0.00, 1486241651331
66, -160370.94, -155091.78, -154069.41, -154126.09, -161568.50, -154377.45, -161653.06, -36493.00, 0.00, 0.00, 0.00, 1486241651334
67, -160341.59, -155061.58, -154069.47, -154127.55, -161568.73, -154404.45, -161652.69, -36479.07, 0.00, 0.00, 0.00, 1486241651338
68, -160321.55, -155041.33, -154075.64, -154123.13, -161567.14, -154357.16, -161652.23, -36473.48, 0.00, 0.00, 0.00, 1486241651343
69, -160314.19, -155033.13, -154071.42, -154121.39, -161567.91, -154335.14, -161653.55, -36479.03, 0.00, 0.00, 0.00, 1486241651347
70, -160300.88, -155017.72, -154068.20, -154123.16, -161566.66, -154352.11, -161652.03, -36480.82, 0.00, 0.00, 0.00, 1486241651351
71, -160271.88, -154987.97, -154063.69, -154125.75, -161565.36, -154406.56, -161649.63, -36469.38, 0.00, 0.00, 0.00, 1486241651354
72, -160245.70, -154962.34, -154063.94, -154120.69, -161563.41, -154370.47, -161648.55, -36460.25, 0.00, 0.00, 0.00, 1486241651358
73, -160238.44, -154952.34, -154060.42, -154111.16, -161559.77, -154311.39, -161646.06, -36465.84, 0.02, -0.01, 1.04, 1486241651363
74, -160227.58, -154939.88, -154060.53, -154112.05, -161559.20, -154343.86, -161644.56, -36468.23, 0.00, 0.00, 0.00, 1486241651366
75, -160200.41, -154911.64, -154060.58, -154129.84, -161560.42, -154398.92, -161644.50, -36455.56, 0.00, 0.00, 0.00, 1486241651370
76, -160175.86, -154885.77, -154060.27, -154122.16, -161557.67, -154354.14, -161643.05, -36445.97, 0.00, 0.00, 0.00, 1486241651375
77, -160166.67, -154874.67, -154059.03, -154110.63, -161555.09, -154317.69, -161641.44, -36451.13, 0.00, 0.00, 0.00, 1486241651379
78, -160157.38, -154863.70, -154055.03, -154112.44, -161556.64, -154342.72, -161642.63, -36455.31, 0.00, 0.00, 0.00, 1486241651382
79, -160131.64, -154837.22, -154058.36, -154119.44, -161558.05, -154400.50, -161642.58, -36444.56, 0.00, 0.00, 0.00, 1486241651387
80, -160101.25, -154807.03, -154059.45, -154117.58, -161556.75, -154373.38, -161642.31, -36429.03, 0.00, 0.00, 0.00, 1486241651390
81, -160088.19, -154794.00, -154054.00, -154105.33, -161555.41, -154326.52, -161641.97, -36431.09, 0.00, 0.00, 0.00, 1486241651394
82, -160080.73, -154784.17, -154053.52, -154109.84, -161555.72, -154331.41, -161642.36, -36437.05, 0.00, 0.00, 0.00, 1486241651399
83, -160058.75, -154759.66, -154055.39, -154120.25, -161555.31, -154386.33, -161640.45, -36429.54, 0.02, -0.02, 1.04, 1486241651403
84, -160031.69, -154730.11, -154053.25, -154115.14, -161551.08, -154359.91, -161636.88, -36418.59, 0.00, 0.00, 0.00, 1486241651407
85, -160016.73, -154713.94, -154055.23, -154117.94, -161552.28, -154341.22, -161638.78, -36419.13, 0.00, 0.00, 0.00, 1486241651411
86, -160009.45, -154705.81, -154052.78, -154109.70, -161550.30, -154316.61, -161637.28, -36424.80, 0.00, 0.00, 0.00, 1486241651414
87, -159990.55, -154685.38, -154055.50, -154110.47, -161549.69, -154366.78, -161635.50, -36420.54, 0.00, 0.00, 0.00, 1486241651419
88, -159956.88, -154652.63, -154057.73, -154112.17, -161549.11, -154387.92, -161634.56, -36404.71, 0.00, 0.00, 0.00, 1486241651422
89, -159939.22, -154634.38, -154048.42, -154094.73, -161544.72, -154323.05, -161631.81, -36401.76, 0.00, 0.00, 0.00, 1486241651427
90, -159933.50, -154627.48, -154044.44, -154097.95, -161545.70, -154322.23, -161632.88, -36409.11, 0.00, 0.00, 0.00, 1486241651430
91, -159917.92, -154609.45, -154044.63, -154107.89, -161546.02, -154347.55, -161632.50, -36407.77, 0.00, 0.00, 0.00, 1486241651434
92, -159889.44, -154580.41, -154046.34, -154109.17, -161544.13, -154363.83, -161630.42, -36395.10, 0.00, 0.00, 0.00, 1486241651438
93, -159869.66, -154560.09, -154041.75, -154101.66, -161541.89, -154334.63, -161628.86, -36390.79, 0.02, -0.02, 1.04, 1486241651442
94, -159861.81, -154551.27, -154041.78, -154098.13, -161542.38, -154317.80, -161629.69, -36395.43, 0.00, 0.00, 0.00, 1486241651446
95, -159847.78, -154535.47, -154045.25, -154102.64, -161543.52, -154342.52, -161630.58, -36393.96, 0.00, 0.00, 0.00, 1486241651451
96, -159817.19, -154505.36, -154040.55, -154104.16, -161541.48, -154374.64, -161627.67, -36379.52, 0.00, 0.00, 0.00, 1486241651455
97, -159793.27, -154480.75, -154041.92, -154103.88, -161539.72, -154347.86, -161626.59, -36370.58, 0.00, 0.00, 0.00, 1486241651459
98, -159784.22, -154469.19, -154043.09, -154101.30, -161540.13, -154323.13, -161627.73, -36374.25, 0.00, 0.00, 0.00, 1486241651462
99, -159773.19, -154455.52, -154041.44, -154097.56, -161542.16, -154331.91, -161629.73, -36375.92, 0.00, 0.00, 0.00, 1486241651467
100, -159749.50, -154430.03, -154038.25, -154101.14, -161538.53, -154349.16, -161625.95, -36365.97, 0.00, 0.00, 0.00, 1486241651470
101, -159724.33, -154403.23, -154039.25, -154101.09, -161536.50, -154347.94, -161624.44, -36357.70, 0.00, 0.00, 0.00, 1486241651474
102, -159712.64, -154390.33, -154041.56, -154100.67, -161536.34, -154315.36, -161624.88, -36362.42, 0.00, 0.00, 0.00, 1486241651479
103, -159703.25, -154379.83, -154040.86, -154101.22, -161536.50, -154320.55, -161625.14, -36367.25, 0.02, -0.02, 1.04, 1486241651483
104, -159675.81, -154352.52, -154040.27, -154101.27, -161537.17, -154372.05, -161625.02, -36354.38, 0.00, 0.00, 0.00, 1486241651486
105, -159648.45, -154324.00, -154040.31, -154095.36, -161532.30, -154339.38, -161621.48, -36342.35, 0.00, 0.00, 0.00, 1486241651490
106, -159637.63, -154311.05, -154036.66, -154082.95, -161529.66, -154299.27, -161619.80, -36346.30, 0.00, 0.00, 0.00, 1486241651493
107, -159630.31, -154295.36, -154040.55, -154093.41, -161530.91, -154311.39, -161621.09, -36352.18, 0.00, 0.00, 0.00, 1486241651498
108, -159607.23, -154017.70, -154036.30, -154096.88, -161529.06, -154364.81, -161618.06, -36346.19, 0.00, 0.00, 0.00, 1486241651503
109, -159563.31, -153731.73, -154036.45, -154101.39, -161526.69, -154402.66, -161614.27, -36319.62, 0.00, 0.00, 0.00, 1486241651507
110, -159527.80, -153886.44, -154030.50, -154092.27, -161524.81, -154361.92, -161613.44, -36299.19, 0.00, 0.00, 0.00, 1486241651511
111, -159499.83, -154080.89, -154028.53, -154091.67, -161525.64, -154370.08, -161614.44, -36284.12, 0.00, 0.00, 0.00, 1486241651514
112, -159457.86, -154261.70, -154026.94, -154096.55, -161522.59, -154399.39, -161610.77, -36255.98, 0.00, 0.00, 0.00, 1486241651517
113, -159406.09, -154433.61, -154025.52, -154100.16, -161518.03, -154411.23, -161606.55, -36221.05, 0.02, -0.02, 1.04, 1486241651522
114, -159367.70, -154617.45, -154021.27, -154086.53, -161515.31, -154360.06, -161605.47, -36196.41, 0.00, 0.00, 0.00, 1486241651526
115, -159341.98, -154895.02, -154021.42, -154075.94, -161512.72, -154331.38, -161603.94, -36182.13, 0.00, 0.00, 0.00, 1486241651531
116, -159315.72, -155470.84, -154019.70, -154079.64, -161509.88, -154338.20, -161601.34, -36169.05, 0.00, 0.00, 0.00, 1486241651535
117, -159284.77, -155613.78, -154019.36, -154083.91, -161509.70, -154351.08, -161601.45, -36153.36, 0.00, 0.00, 0.00, 1486241651538
118, -159265.61, -155592.33, -154010.16, -154065.08, -161505.08, -154297.91, -161598.28, -36149.52, 0.00, 0.00, 0.00, 1486241651542
119, -159258.20, -155581.70, -154011.53, -154071.38, -161504.52, -154287.25, -161598.06, -36154.75, 0.00, 0.00, 0.00, 1486241651545
120, -159243.30, -155563.64, -154015.52, -154073.05, -161505.77, -154321.56, -161598.44, -36153.25, 0.00, 0.00, 0.00, 1486241651550
121, -159214.64, -155531.81, -154015.41, -154077.14, -161504.41, -154343.55, -161597.42, -36139.55, 0.00, 0.00, 0.00, 1486241651555
122, -159192.61, -155507.16, -154008.41, -154063.17, -161501.27, -154310.05, -161595.91, -36131.39, 0.00, 0.00, 0.00, 1486241651559
123, -159185.31, -155497.75, -154008.63, -154058.50, -161499.53, -154272.61, -161595.08, -36137.00, 0.01, -0.01, 1.04, 1486241651563
124, -159176.36, -155485.91, -154009.34, -154067.03, -161499.84, -154288.19, -161595.53, -36139.91, 0.00, 0.00, 0.00, 1486241651567
125, -159151.48, -155458.52, -154008.03, -154072.83, -161496.41, -154328.38, -161592.25, -36125.92, 0.00, 0.00, 0.00, 1486241651570
126, -159126.52, -155432.50, -154004.45, -154065.42, -161493.11, -154303.08, -161590.30, -36112.17, 0.00, 0.00, 0.00, 1486241651574
127, -159116.78, -155420.48, -154004.67, -154063.39, -161493.61, -154296.70, -161591.17, -36113.69, 0.00, 0.00, 0.00, 1486241651578
128, -159105.50, -155406.33, -154009.11, -154063.78, -161495.08, -154303.31, -161593.27, -36116.30, 0.00, 0.00, 0.00, 1486241651582
129, -159081.61, -155380.36, -154004.66, -154068.31, -161491.80, -154323.20, -161590.92, -36107.88, 0.00, 0.00, 0.00, 1486241651587
130, -159054.61, -155350.34, -154005.14, -154067.81, -161490.39, -154333.89, -161591.11, -36094.76, 0.00, 0.00, 0.00, 1486241651591
131, -159043.52, -155336.27, -154000.52, -154055.17, -161486.67, -154277.14, -161589.45, -36097.55, 0.00, 0.00, 0.00, 1486241651595
132, -159038.72, -155328.13, -154003.45, -154064.84, -161484.73, -154266.42, -161588.16, -36105.35, 0.00, 0.00, 0.00, 1486241651598
133, -159018.39, -155305.44, -154004.52, -154064.17, -161483.13, -154320.75, -161587.70, -36099.79, 0.01, -0.01, 1.04, 1486241651602
134, -158989.98, -155274.48, -154002.03, -154061.05, -161477.09, -154327.33, -161586.28, -36087.63, 0.00, 0.00, 0.00, 1486241651606
135, -158975.84, -155257.16, -154002.55, -154056.75, -161470.66, -154273.52, -161585.06, -36086.89, 0.00, 0.00, 0.00, 1486241651611
136, -158967.70, -155246.50, -154001.88, -154051.92, -161467.80, -154274.75, -161586.08, -36091.67, 0.00, 0.00, 0.00, 1486241651614
137, -158948.75, -155225.80, -154001.53, -154061.89, -161456.70, -154321.28, -161586.50, -36086.40, 0.00, 0.00, 0.00, 1486241651619
138, -158920.27, -155194.75, -153997.17, -154056.58, -161431.58, -154323.77, -161583.75, -36072.47, 0.00, 0.00, 0.00, 1486241651623
139, -158904.02, -155175.48, -153999.02, -154057.41, -161415.28, -154280.20, -161583.17, -36069.99, 0.00, 0.00, 0.00, 1486241651625
140, -158898.70, -155168.06, -153997.13, -154053.81, -161411.42, -154265.16, -161582.95, -36078.33, 0.00, 0.00, 0.00, 1486241651629
141, -158882.98, -155150.30, -154002.19, -154065.98, -161399.75, -154304.86, -161584.59, -36076.21, 0.00, 0.00, 0.00, 1486241651634
142, -158855.67, -155119.20, -154000.73, -154057.69, -161375.45, -154307.70, -161580.59, -36062.62, 0.00, 0.00, 0.00, 1486241651639
143, -158836.98, -155097.36, -153993.66, -154047.34, -161358.22, -154276.56, -161579.34, -36057.79, 0.02, -0.01, 1.03, 1486241651642
144, -158828.73, -155087.78, -153991.22, -154045.83, -161350.44, -154255.58, -161578.20, -36062.10, 0.00, 0.00, 0.00, 1486241651647
145, -158814.39, -155071.30, -153998.42, -154052.38, -161340.50, -154301.44, -161579.55, -36061.77, 0.00, 0.00, 0.00, 1486241651651
146, -158787.25, -155042.28, -153995.41, -154056.20, -161317.39, -154319.70, -161577.53, -36048.20, 0.00, 0.00, 0.00, 1486241651653
147, -158763.77, -155016.73, -153995.63, -154058.25, -161294.94, -154309.94, -161579.80, -36038.10, 0.00, 0.00, 0.00, 1486241651657
148, -158757.16, -155007.36, -153991.53, -154047.23, -161286.31, -154269.03, -161578.31, -36044.27, 0.00, 0.00, 0.00, 1486241651662
149, -158748.28, -154996.20, -153992.16, -154049.31, -161279.66, -154258.06, -161576.95, -36048.40, 0.00, 0.00, 0.00, 1486241651666
150, -158722.69, -154968.14, -153999.42, -154056.36, -161258.52, -154326.55, -161578.13, -36038.23, 0.00, 0.00, 0.00, 1486241651670
151, -158696.33, -154940.47, -153994.59, -154051.14, -161233.23, -154291.56, -161577.05, -36028.42, 0.00, 0.00, 0.00, 1486241651674
152, -158686.00, -154927.78, -153985.25, -154041.09, -161222.02, -154255.48, -161575.14, -36031.82, 0.00, 0.00, 0.00, 1486241651679
153, -158677.27, -154916.63, -153990.89, -154050.97, -161214.55, -154279.02, -161575.38, -36035.86, 0.02, -0.01, 1.03, 1486241651681
154, -158654.31, -154891.14, -153990.64, -154046.86, -161193.84, -154296.23, -161574.77, -36026.52, 0.00, 0.00, 0.00, 1486241651685
155, -158628.69, -154862.41, -153986.69, -154046.47, -161168.59, -154312.66, -161572.89, -36015.12, 0.00, 0.00, 0.00, 1486241651690
156, -158618.39, -154848.36, -153985.98, -154040.48, -161156.58, -154262.06, -161573.84, -36016.75, 0.00, 0.00, 0.00, 1486241651694
157, -158612.08, -154840.55, -153985.09, -154042.11, -161151.20, -154250.59, -161571.45, -36023.57, 0.00, 0.00, 0.00, 1486241651699
158, -158590.88, -154817.52, -153988.92, -154052.20, -161132.17, -154307.47, -161571.45, -36017.53, 0.00, 0.00, 0.00, 1486241651702
159, -158562.73, -154786.55, -153986.77, -154041.88, -161102.56, -154300.55, -161569.89, -36005.78, 0.00, 0.00, 0.00, 1486241651707
160, -158546.23, -154768.22, -153984.88, -154039.20, -161084.91, -154263.95, -161570.50, -36005.71, 0.00, 0.00, 0.00, 1486241651710
161, -158539.70, -154758.78, -153985.05, -154042.66, -161078.11, -154257.75, -161571.05, -36013.64, 0.00, 0.00, 0.00, 1486241651714
162, -158522.23, -154738.47, -153985.67, -154048.63, -161060.72, -154280.11, -161568.50, -36011.09, 0.00, 0.00, 0.00, 1486241651717
163, -158493.44, -154707.45, -153984.05, -154047.91, -161031.45, -154306.72, -161566.42, -35998.67, 0.02, -0.01, 1.03, 1486241651722
164, -158478.27, -154689.73, -153982.75, -154032.91, -161014.09, -154254.05, -161565.88, -35997.57, 0.00, 0.00, 0.00, 1486241651727
165, -158472.23, -154682.27, -153979.23, -154029.58, -161008.66, -154251.86, -161565.69, -36004.97, 0.00, 0.00, 0.00, 1486241651731
166, -158456.41, -154663.98, -153986.33, -154039.03, -160993.44, -154288.44, -161567.55, -36003.59, 0.00, 0.00, 0.00, 1486241651735
167, -158428.41, -154633.86, -153984.25, -154040.58, -160964.27, -154313.13, -161564.73, -35990.89, 0.00, 0.00, 0.00, 1486241651737
168, -158407.70, -154610.34, -153980.89, -154028.56, -160941.63, -154260.63, -161562.31, -35983.89, 0.00, 0.00, 0.00, 1486241651741
169, -158401.23, -154601.20, -153985.72, -154026.25, -160934.30, -154235.64, -161561.63, -35988.92, 0.00, 0.00, 0.00, 1486241651746
170, -158390.06, -154587.28, -153981.36, -154029.16, -160922.30, -154267.20, -161561.73, -35989.82, 0.00, 0.00, 0.00, 1486241651749
171, -158363.73, -154558.28, -153981.41, -154036.42, -160893.59, -154305.53, -161561.20, -35979.94, 0.00, 0.00, 0.00, 1486241651755
172, -158342.56, -154534.06, -153980.11, -154030.27, -160869.98, -154262.77, -161559.78, -35974.59, 0.00, 0.00, 0.00, 1486241651759
173, -158335.77, -154524.44, -153975.03, -154022.41, -160861.86, -154240.53, -161559.00, -35979.73, 0.00, 0.00, 0.00, 1486241651763
174, -158326.39, -154512.70, -153973.11, -154028.13, -160851.81, -154260.14, -161559.91, -35981.21, 0.02, -0.01, 1.04, 1486241651766
175, -158301.67, -154485.22, -153973.58, -154037.27, -160825.73, -154298.06, -161557.33, -35970.08, 0.00, 0.00, 0.00, 1486241651770
176, -158274.63, -154456.34, -153973.03, -154032.11, -160796.25, -154276.81, -161556.50, -35957.85, 0.00, 0.00, 0.00, 1486241651773
177, -158264.36, -154443.67, -153972.89, -154028.14, -160784.94, -154233.64, -161557.44, -35961.65, 0.00, 0.00, 0.00, 1486241651778
178, -158254.45, -154431.64, -153976.20, -154031.05, -160775.52, -154266.86, -161558.66, -35966.32, 0.00, 0.00, 0.00, 1486241651782
179, -158231.92, -154406.77, -153973.27, -154036.92, -160751.84, -154276.86, -161555.86, -35958.52, 0.00, 0.00, 0.00, 1486241651787
180, -158206.94, -154380.00, -153972.47, -154032.77, -160723.75, -154289.28, -161554.88, -35946.95, 0.00, 0.00, 0.00, 1486241651790
181, -158195.89, -154365.86, -153966.59, -154015.88, -160710.77, -154237.81, -161553.42, -35948.18, 0.00, 0.00, 0.00, 1486241651794
182, -158190.05, -154358.06, -153963.77, -154020.77, -160706.27, -154214.11, -161550.88, -35954.23, 0.00, 0.00, 0.00, 1486241651798
183, -158170.14, -154335.86, -153966.19, -154026.00, -160684.27, -154286.00, -161551.45, -35948.85, 0.00, 0.00, 0.00, 1486241651802
184, -158140.53, -154303.55, -153963.92, -154023.66, -160650.30, -154288.61, -161549.50, -35933.94, 0.02, -0.01, 1.04, 1486241651806
185, -158125.31, -154286.69, -153959.80, -154016.34, -160634.30, -154234.56, -161546.94, -35932.64, 0.00, 0.00, 0.00, 1486241651809
186, -158119.03, -154278.02, -153963.75, -154023.58, -160626.78, -154233.88, -161548.88, -35939.70, 0.00, 0.00, 0.00, 1486241651814
187, -158102.00, -154257.81, -153967.11, -154022.84, -160607.05, -154265.52, -161549.08, -35935.21, 0.00, 0.00, 0.00, 1486241651818
188, -158077.28, -154230.45, -153957.69, -154015.66, -160579.39, -154268.69, -161545.58, -35922.79, 0.00, 0.00, 0.00, 1486241651822
189, -158059.64, -154129.67, -153957.16, -154015.31, -160560.58, -154243.84, -161544.70, -35918.13, 0.00, 0.00, 0.00, 1486241651825
190, -158043.59, -153731.77, -153963.30, -154023.52, -160543.55, -154266.28, -161544.36, -35914.11, 0.00, 0.00, 0.00, 1486241651829
191, -158009.81, -153743.27, -153963.11, -154025.06, -160505.50, -154321.67, -161542.80, -35891.78, 0.00, 0.00, 0.00, 1486241651833
192, -157959.50, -153914.89, -153961.69, -154036.17, -160449.52, -154353.09, -161540.56, -35854.36, 0.00, 0.00, 0.00, 1486241651838
193, -157917.42, -154093.19, -153960.89, -154029.16, -160402.06, -154300.39, -161537.84, -35823.50, 0.00, 0.00, 0.00, 1486241651843
194, -157890.45, -154286.59, -153956.83, -154019.73, -160371.81, -154270.38, -161535.53, -35807.02, 0.02, -0.02, 1.03, 1486241651846
195, -157859.66, -154476.80, -153954.31, -154020.91, -160336.97, -154294.44, -161533.95, -35788.27, 0.00, 0.00, 0.00, 1486241651849
196, -157814.75, -154657.02, -153951.09, -154017.17, -160287.22, -154315.70, -161528.97, -35757.00, 0.00, 0.00, 0.00, 1486241651853
197, -157776.52, -155078.83, -153940.33, -154001.25, -160244.50, -154283.64, -161525.64, -35731.77, 0.00, 0.00, 0.00, 1486241651857
198, -157763.28, -155543.91, -153936.75, -153991.38, -160230.39, -154202.58, -161525.53, -35731.39, 0.00, 0.00, 0.00, 1486241651862
199, -157753.13, -155567.13, -153943.20, -154006.86, -160218.86, -154241.52, -161527.69, -35732.44, 0.00, 0.00, 0.00, 1486241651866
200, -157726.59, -155536.80, -153944.11, -154009.48, -160189.89, -154260.27, -161526.73, -35719.25, 0.00, 0.00, 0.00, 1486241651870
201, -157700.84, -155508.28, -153945.42, -154000.20, -160162.25, -154247.17, -161524.73, -35708.97, 0.00, 0.00, 0.00, 1486241651874
202, -157690.36, -155494.80, -153944.39, -153994.27, -160151.34, -154205.16, -161525.64, -35713.15, 0.00, 0.00, 0.00, 1486241651877
203, -157683.13, -155483.56, -153945.48, -153997.81, -160143.30, -154216.84, -161526.00, -35718.60, 0.00, 0.00, 0.00, 1486241651882
204, -157662.81, -155460.06, -153945.72, -153997.48, -160121.56, -154252.22, -161522.23, -35712.10, 0.03, -0.02, 1.04, 1486241651885
205, -157637.50, -155431.08, -153938.20, -153991.48, -160093.78, -154245.89, -161520.66, -35700.72, 0.00, 0.00, 0.00, 1486241651890
206, -157625.28, -155416.08, -153934.20, -153986.64, -160080.66, -154209.08, -161520.50, -35703.80, 0.00, 0.00, 0.00, 1486241651894
207, -157617.55, -155406.13, -153935.55, -153993.83, -160073.67, -154211.59, -161521.55, -35709.97, 0.00, 0.00, 0.00, 1486241651899
208, -157595.08, -155381.25, -153939.45, -154004.56, -160049.89, -154262.33, -161521.08, -35703.20, 0.00, 0.00, 0.00, 1486241651901
209, -157566.67, -155349.92, -153940.02, -153998.91, -160018.34, -154247.91, -161520.72, -35690.30, 0.00, 0.00, 0.00, 1486241651906
210, -157552.69, -155333.38, -153935.20, -153981.41, -160004.31, -154201.91, -161518.45, -35691.18, 0.00, 0.00, 0.00, 1486241651910
211, -157547.83, -155324.91, -153931.09, -153981.92, -159999.28, -154200.19, -161518.91, -35699.18, 0.00, 0.00, 0.00, 1486241651913
212, -157532.91, -155305.03, -153937.55, -153991.00, -159982.69, -154231.05, -161517.67, -35697.37, 0.00, 0.00, 0.00, 1486241651918
213, -157505.83, -155274.44, -153934.73, -153988.36, -159953.34, -154249.66, -161516.41, -35684.92, 0.00, 0.00, 0.00, 1486241651922
214, -157488.44, -155255.02, -153929.23, -153987.59, -159934.58, -154208.23, -161515.53, -35682.57, 0.02, -0.01, 1.04, 1486241651927
215, -157481.09, -155245.09, -153930.11, -153985.41, -159926.97, -154203.73, -161514.50, -35688.54, 0.00, 0.00, 0.00, 1486241651929
216, -157465.58, -155227.25, -153930.48, -153987.52, -159911.17, -154222.45, -161512.84, -35685.48, 0.00, 0.00, 0.00, 1486241651933
217, -157437.23, -155195.83, -153935.20, -153992.61, -159881.16, -154274.58, -161513.97, -35671.01, 0.00, 0.00, 0.00, 1486241651938
218, -157416.77, -155171.08, -153934.22, -153986.89, -159858.75, -154218.47, -161515.23, -35664.35, 0.00, 0.00, 0.00, 1486241651942
219, -157411.16, -155162.14, -153932.23, -153980.06, -159852.63, -154185.86, -161514.80, -35670.12, 0.00, 0.00, 0.00, 1486241651946
220, -157401.41, -155149.91, -153933.67, -153982.39, -159844.11, -154210.41, -161513.91, -35672.24, 0.00, 0.00, 0.00, 1486241651949
221, -157375.45, -155121.14, -153932.09, -153990.77, -159817.63, -154246.61, -161511.38, -35659.91, 0.00, 0.00, 0.00, 1486241651956
222, -157353.14, -155095.38, -153924.88, -153985.19, -159793.58, -154227.09, -161509.63, -35652.57, 0.00, 0.00, 0.00, 1486241651958
223, -157344.00, -155083.42, -153922.94, -153980.77, -159784.39, -154189.56, -161509.45, -35657.87, 0.00, 0.00, 0.00, 1486241651961
224, -157332.92, -155069.95, -153923.55, -153981.88, -159773.08, -154208.34, -161507.52, -35659.10, 0.02, -0.01, 1.04, 1486241651966
225, -157308.73, -155043.14, -153923.56, -153988.11, -159747.06, -154242.25, -161505.81, -35646.29, 0.00, 0.00, 0.00, 1486241651970
226, -157284.39, -155015.88, -153921.53, -153982.39, -159720.69, -154221.88, -161505.34, -35634.63, 0.00, 0.00, 0.00, 1486241651974
227, -157274.33, -155004.14, -153920.88, -153978.53, -159711.02, -154186.64, -161506.44, -35637.42, 0.00, 0.00, 0.00, 1486241651978
228, -157268.70, -154994.95, -153923.81, -153977.20, -159704.97, -154187.67, -161505.59, -35643.19, 0.00, 0.00, 0.00, 1486241651982
229, -157248.25, -154971.52, -153920.05, -153979.27, -159683.19, -154234.36, -161503.78, -35635.30, 0.00, 0.00, 0.00, 1486241651986
230, -157221.41, -154941.66, -153916.23, -153977.94, -159655.02, -154226.19, -161502.61, -35623.07, 0.00, 0.00, 0.00, 1486241651989
231, -157208.39, -154925.81, -153914.02, -153972.47, -159641.36, -154192.45, -161501.41, -35623.00, 0.00, 0.00, 0.00, 1486241651994
232, -157199.34, -154915.16, -153916.30, -153973.41, -159632.27, -154202.09, -161502.55, -35626.98, 0.00, 0.00, 0.00, 1486241651998
233, -157179.19, -154893.25, -153918.23, -153976.09, -159612.17, -154221.13, -161501.05, -35622.20, 0.00, 0.00, 0.00, 1486241652002
234, -157151.89, -154863.03, -153913.19, -153971.86, -159583.52, -154235.66, -161498.64, -35610.04, 0.02, -0.01, 1.04, 1486241652006
235, -157137.16, -154845.30, -153909.84, -153965.98, -159567.84, -154183.02, -161498.25, -35609.21, 0.00, 0.00, 0.00, 1486241652011
236, -157133.30, -154837.28, -153911.14, -153967.28, -159563.69, -154176.16, -161497.61, -35617.50, 0.00, 0.00, 0.00, 1486241652013
237, -157116.84, -154818.06, -153915.31, -153971.50, -159548.13, -154214.92, -161497.09, -35614.96, 0.00, 0.00, 0.00, 1486241652017
238, -157089.55, -154788.03, -153913.33, -153972.20, -159520.42, -154236.44, -161497.03, -35601.90, 0.00, 0.00, 0.00, 1486241652022
239, -157071.73, -154767.31, -153910.02, -153963.92, -159502.09, -154197.55, -161496.09, -35597.14, 0.00, 0.00, 0.00, 1486241652026
240, -157063.41, -154756.81, -153909.06, -153964.84, -159493.13, -154190.89, -161495.22, -35602.02, 0.00, 0.00, 0.00, 1486241652030
241, -157048.88, -154739.59, -153915.25, -153971.19, -159478.28, -154203.52, -161496.33, -35601.28, 0.00, 0.00, 0.00, 1486241652034
242, -157021.83, -154709.78, -153913.41, -153970.23, -159451.02, -154229.44, -161494.86, -35589.32, 0.00, 0.00, 0.00, 1486241652038
243, -157001.75, -154687.13, -153909.61, -153963.06, -159430.34, -154202.52, -161493.92, -35582.39, 0.00, 0.00, 0.00, 1486241652043
244, -156996.66, -154679.23, -153907.20, -153959.73, -159425.28, -154163.19, -161494.08, -35588.43, 0.02, -0.01, 1.03, 1486241652045
245, -156985.92, -154665.81, -153907.98, -153970.09, -159415.03, -154190.83, -161494.36, -35590.88, 0.00, 0.00, 0.00, 1486241652051
246, -156959.78, -154637.03, -153907.38, -153974.92, -159388.73, -154243.59, -161492.20, -35580.40, 0.00, 0.00, 0.00, 1486241652054
247, -156936.38, -154611.77, -153905.03, -153966.16, -159365.16, -154191.56, -161489.42, -35572.02, 0.00, 0.00, 0.00, 1486241652058
248, -156926.05, -154598.66, -153904.47, -153956.63, -159355.02, -154189.39, -161490.30, -35574.81, 0.00, 0.00, 0.00, 1486241652062
249, -156916.22, -154586.25, -153904.00, -153963.81, -159345.22, -154180.41, -161490.47, -35577.96, 0.00, 0.00, 0.00, 1486241652071
250, -156891.11, -154558.19, -153909.86, -153977.75, -159319.56, -154238.41, -161489.88, -35567.84, 0.00, 0.00, 0.00, 1486241652071
251, -156865.75, -154529.72, -153903.67, -153963.66, -159292.83, -154218.66, -161489.20, -35557.45, 0.00, 0.00, 0.00, 1486241652072
252, -156857.81, -154519.22, -153901.92, -153955.38, -159285.70, -154153.66, -161486.23, -35563.59, 0.00, 0.00, 0.00, 1486241652077
253, -156851.44, -154510.20, -153903.52, -153953.48, -159279.63, -154165.59, -161485.14, -35569.54, 0.00, 0.00, 0.00, 1486241652082
254, -156830.47, -154486.94, -153902.95, -153960.58, -159258.83, -154228.08, -161484.33, -35560.42, 0.02, -0.01, 1.03, 1486241652086
255, -156803.61, -154457.02, -153903.77, -153963.50, -159231.41, -154217.55, -161485.02, -35546.74, 0.00, 0.00, 0.00, 1486241652090
0, -156789.17, -154440.06, -153900.89, -153953.17, -159216.66, -154168.63, -161485.00, -35545.20, 0.00, 0.00, 0.00, 1486241652094
1, -156782.34, -154430.14, -153901.02, -153956.06, -159210.39, -154167.94, -161483.88, -35551.32, 0.00, 0.00, 0.00, 1486241652098
2, -156763.86, -154408.69, -153899.27, -153954.05, -159191.72, -154210.36, -161481.64, -35545.40, 0.00, 0.00, 0.00, 1486241652101
3, -156737.41, -154379.41, -153894.86, -153953.38, -159164.36, -154208.39, -161479.81, -35533.48, 0.00, 0.00, 0.00, 1486241652105
4, -156724.19, -154363.42, -153891.91, -153944.86, -159150.34, -154162.25, -161479.56, -35533.71, 0.00, 0.00, 0.00, 1486241652110
5, -156718.67, -154355.48, -153891.95, -153948.11, -159145.31, -154162.13, -161479.30, -35541.20, 0.00, 0.00, 0.00, 1486241652114
6, -156702.55, -154336.98, -153896.27, -153963.86, -159129.31, -154200.91, -161478.61, -35537.39, 0.00, 0.00, 0.00, 1486241652117
7, -156673.20, -154304.97, -153896.41, -153961.06, -159100.16, -154224.53, -161477.48, -35521.21, 0.00, 0.00, 0.00, 1486241652122
8, -156653.20, -154282.59, -153890.44, -153951.75, -159080.89, -154171.63, -161477.06, -35515.78, 0.02, -0.02, 1.04, 1486241652126
9, -156647.50, -154274.11, -153891.39, -153948.39, -159074.83, -154147.59, -161476.97, -35521.73, 0.00, 0.00, 0.00, 1486241652129
10, -156634.77, -154257.72, -153894.81, -153954.88, -159062.05, -154192.86, -161476.55, -35521.39, 0.00, 0.00, 0.00, 1486241652133
11, -156606.75, -154227.67, -153898.11, -153959.50, -159034.47, -154224.03, -161474.25, -35509.16, 0.00, 0.00, 0.00, 1486241652138
12, -156586.58, -154204.88, -153892.19, -153952.13, -159013.75, -154193.33, -161474.50, -35505.12, 0.00, 0.00, 0.00, 1486241652142
13, -156579.11, -154194.70, -153895.69, -153956.03, -159006.42, -154144.08, -161475.36, -35510.15, 0.00, 0.00, 0.00, 1486241652146
14, -156567.45, -154182.08, -153892.81, -153950.73, -158996.47, -154177.02, -161475.17, -35512.59, 0.00, 0.00, 0.00, 1486241652151
15, -156541.69, -154152.58, -153890.28, -153955.17, -158971.09, -154207.56, -161472.33, -35500.52, 0.00, 0.00, 0.00, 1486241652154
16, -156515.11, -153908.05, -153887.02, -153945.75, -158943.31, -154206.27, -161470.41, -35486.41, 0.00, 0.00, 0.00, 1486241652157
17, -156491.83, -153594.59, -153892.14, -153944.70, -158920.27, -154204.36, -161470.19, -35475.84, 0.00, 0.00, 0.00, 1486241652161
18, -156463.56, -153738.13, -153894.84, -153951.88, -158891.55, -154229.00, -161469.52, -35458.43, 0.02, -0.02, 1.04, 1486241652165
19, -156421.39, -153916.13, -153886.97, -153954.11, -158849.17, -154260.36, -161464.61, -35427.80, 0.00, 0.00, 0.00, 1486241652170
20, -156377.97, -154093.45, -153881.94, -153954.42, -158806.17, -154248.63, -161461.59, -35397.63, 0.00, 0.00, 0.00, 1486241652175
21, -156347.25, -154284.50, -153879.95, -153944.97, -158776.03, -154196.23, -161460.44, -35378.14, 0.00, 0.00, 0.00, 1486241652178
22, -156320.92, -154478.63, -153878.91, -153945.20, -158749.69, -154210.27, -161458.63, -35361.22, 0.00, 0.00, 0.00, 1486241652182
23, -156279.25, -154703.38, -153878.39, -153949.53, -158707.75, -154260.42, -161456.39, -35330.89, 0.00, 0.00, 0.00, 1486241652185
24, -156237.59, -155250.30, -153869.69, -153935.72, -158666.02, -154217.70, -161452.77, -35303.15, 0.00, 0.00, 0.00, 1486241652189
25, -156221.34, -155487.98, -153870.56, -153924.92, -158649.64, -154152.41, -161453.33, -35301.16, 0.00, 0.00, 0.00, 1486241652193
26, -156214.64, -155478.78, -153874.30, -153921.94, -158643.89, -154135.09, -161454.56, -35308.07, 0.00, 0.00, 0.00, 1486241652198
27, -156196.13, -155456.44, -153876.02, -153930.33, -158626.75, -154177.34, -161452.92, -35303.57, 0.00, 0.00, 0.00, 1486241652202
28, -156170.69, -155426.63, -153869.66, -153930.72, -158601.17, -154174.08, -161449.69, -35292.60, 0.01, -0.02, 1.04, 1486241652207
29, -156155.23, -155407.89, -153868.84, -153926.22, -158585.38, -154150.92, -161447.97, -35291.08, 0.00, 0.00, 0.00, 1486241652209
30, -156150.63, -155399.84, -153863.30, -153916.78, -158580.23, -154118.45, -161446.89, -35298.25, 0.00, 0.00, 0.00, 1486241652213
31, -156134.06, -155380.14, -153867.97, -153928.66, -158564.31, -154184.97, -161447.69, -35295.28, 0.00, 0.00, 0.00, 1486241652217
32, -156103.66, -155347.75, -153867.14, -153926.52, -158534.69, -154191.52, -161447.81, -35280.35, 0.00, 0.00, 0.00, 1486241652222
33, -156084.80, -155325.75, -153864.27, -153913.08, -158516.27, -154135.91, -161446.23, -35275.68, 0.00, 0.00, 0.00, 1486241652226
34, -156078.34, -155315.86, -153864.78, -153915.94, -158508.86, -154150.14, -161447.47, -35281.73, 0.00, 0.00, 0.00, 1486241652231
35, -156065.94, -155299.73, -153861.98, -153918.38, -158495.72, -154140.48, -161444.39, -35283.21, 0.00, 0.00, 0.00, 1486241652233
36, -156040.67, -155270.61, -153862.61, -153919.00, -158470.20, -154178.84, -161441.91, -35273.00, 0.00, 0.00, 0.00, 1486241652237
37, -156020.94, -155247.88, -153859.19, -153910.47, -158450.55, -154151.77, -161441.03, -35265.38, 0.00, 0.00, 0.00, 1486241652242
38, -156013.70, -155237.20, -153861.52, -153910.16, -158443.17, -154127.59, -161442.73, -35269.84, 0.02, -0.02, 1.04, 1486241652246
39, -156002.67, -155222.84, -153862.19, -153912.86, -158432.27, -154156.59, -161443.50, -35271.59, 0.00, 0.00, 0.00, 1486241652249
40, -155974.77, -155191.86, -153862.86, -153921.75, -158404.81, -154202.09, -161444.23, -35256.43, 0.00, 0.00, 0.00, 1486241652254
41, -155951.42, -155165.36, -153859.09, -153914.17, -158381.64, -154155.89, -161442.75, -35245.37, 0.00, 0.00, 0.00, 1486241652258
42, -155942.70, -155153.20, -153858.72, -153909.34, -158372.63, -154126.45, -161443.83, -35250.18, 0.00, 0.00, 0.00, 1486241652261
43, -155934.73, -155143.13, -153854.89, -153911.31, -158366.70, -154129.22, -161442.91, -35255.72, 0.00, 0.00, 0.00, 1486241652266
44, -155912.84, -155118.19, -153860.73, -153918.33, -158345.09, -154173.31, -161440.47, -35247.38, 0.00, 0.00, 0.00, 1486241652269
45, -155887.66, -155090.17, -153858.31, -153917.11, -158318.81, -154162.50, -161438.67, -35236.05, 0.00, 0.00, 0.00, 1486241652273
46, -155876.72, -155077.06, -153857.36, -153905.38, -158307.66, -154112.17, -161437.53, -35238.39, 0.00, 0.00, 0.00, 1486241652278
47, -155870.13, -155068.17, -153854.34, -153907.53, -158300.66, -154127.98, -161438.17, -35243.25, 0.00, 0.00, 0.00, 1486241652283
48, -155847.63, -155041.86, -153857.77, -153922.36, -158278.75, -154181.86, -161438.86, -35232.43, 0.02, -0.01, 1.04, 1486241652286
49, -155819.08, -155010.33, -153858.83, -153919.56, -158250.66, -154175.58, -161437.44, -35216.82, 0.00, 0.00, 0.00, 1486241652289
50, -155805.78, -154994.77, -153851.23, -153904.14, -158238.47, -154117.67, -161435.16, -35216.71, 0.00, 0.00, 0.00, 1486241652294
51, -155801.13, -154986.09, -153852.53, -153904.36, -158233.83, -154115.09, -161436.25, -35225.30, 0.00, 0.00, 0.00, 1486241652297
52, -155785.23, -154966.45, -153852.89, -153915.58, -158217.23, -154157.89, -161436.20, -35223.20, 0.00, 0.00, 0.00, 1486241652301
53, -155756.69, -154935.73, -153856.53, -153918.72, -158189.45, -154161.41, -161433.05, -35209.90, 0.00, 0.00, 0.00, 1486241652305
54, -155740.45, -154917.19, -153849.44, -153906.44, -158173.50, -154121.39, -161431.48, -35208.78, 0.00, 0.00, 0.00, 1486241652310
55, -155734.36, -154907.39, -153849.83, -153904.25, -158166.97, -154123.47, -161433.95, -35215.15, 0.00, 0.00, 0.00, 1486241652315
56, -155717.64, -154887.69, -153847.19, -153907.61, -158149.56, -154147.50, -161432.36, -35210.68, 0.00, 0.00, 0.00, 1486241652317
57, -155690.56, -154856.95, -153845.95, -153913.38, -158121.17, -154170.55, -161429.86, -35196.38, 0.00, 0.00, 0.00, 1486241652321
58, -155672.31, -154835.00, -153847.03, -153902.78, -158102.67, -154130.56, -161430.16, -35189.36, 0.02, -0.01, 1.04, 1486241652325
59, -155666.59, -154826.77, -153846.47, -153895.80, -158097.22, -154108.09, -161430.03, -35195.14, 0.00, 0.00, 0.00, 1486241652330
60, -155654.23, -154813.45, -153848.19, -153908.31, -158086.50, -154141.78, -161431.09, -35196.87, 0.00, 0.00, 0.00, 1486241652334
61, -155626.86, -154782.86, -153851.30, -153915.81, -158060.02, -154168.67, -161429.88, -35183.21, 0.00, 0.00, 0.00, 1486241652337
62, -155606.63, -154759.31, -153841.94, -153901.28, -158040.02, -154132.28, -161427.28, -35176.88, 0.00, 0.00, 0.00, 1486241652343
63, -155598.69, -154748.92, -153845.58, -153898.11, -158032.91, -154118.48, -161428.34, -35180.57, 0.00, 0.00, 0.00, 1486241652345
64, -155586.98, -154734.91, -153842.56, -153900.42, -158021.11, -154126.77, -161427.69, -35182.29, 0.00, 0.00, 0.00, 1486241652349
65, -155561.20, -154705.47, -153845.06, -153907.67, -157995.73, -154163.16, -161423.75, -35169.33, 0.00, 0.00, 0.00, 1486241652353
66, -155536.53, -154677.75, -153843.94, -153896.88, -157971.39, -154148.47, -161423.22, -35156.68, 0.00, 0.00, 0.00, 1486241652357
67, -155527.88, -154666.53, -153842.22, -153888.48, -157962.61, -154102.78, -161425.14, -35161.91, 0.00, 0.00, 0.00, 1486241652362
68, -155521.31, -154658.06, -153839.36, -153893.91, -157956.47, -154115.66, -161424.25, -35170.09, 0.00, 0.00, 0.00, 1486241652365
69, -155498.59, -154632.42, -153841.36, -153905.25, -157934.11, -154172.47, -161425.13, -35160.23, 0.02, -0.02, 1.04, 1486241652370
70, -155472.98, -154604.34, -153836.92, -153896.06, -157907.64, -154126.16, -161421.30, -35148.99, 0.00, 0.00, 0.00, 1486241652373
71, -155460.73, -154589.94, -153835.88, -153893.75, -157895.95, -154105.17, -161420.05, -35151.20, 0.00, 0.00, 0.00, 1486241652376
72, -155450.92, -154577.80, -153838.92, -153897.23, -157887.44, -154133.00, -161421.98, -35153.97, 0.00, 0.00, 0.00, 1486241652381
73, -155430.20, -154553.52, -153836.39, -153896.58, -157867.03, -154147.02, -161420.50, -35146.08, 0.00, 0.00, 0.00, 1486241652386
74, -155403.73, -154523.39, -153837.63, -153900.61, -157840.22, -154154.45, -161419.31, -35132.96, 0.00, 0.00, 0.00, 1486241652390
75, -155389.59, -154506.63, -153840.95, -153896.27, -157825.58, -154108.88, -161418.28, -35132.43, 0.00, 0.00, 0.00, 1486241652393
76, -155385.23, -154499.81, -153837.08, -153885.14, -157821.80, -154080.97, -161417.92, -35143.11, 0.00, 0.00, 0.00, 1486241652399
77, -155369.11, -154480.05, -153836.64, -153894.30, -157805.34, -154148.16, -161419.13, -35142.73, 0.00, 0.00, 0.00, 1486241652403
78, -155341.02, -154448.89, -153835.47, -153893.52, -157776.91, -154153.63, -161417.52, -35129.01, 0.00, 0.00, 0.00, 1486241652405
79, -155324.19, -154429.72, -153830.67, -153884.84, -157761.22, -154107.27, -161415.84, -35125.41, 0.02, -0.01, 1.04, 1486241652409
80, -155317.28, -154420.19, -153829.11, -153887.11, -157754.45, -154087.05, -161415.22, -35131.24, 0.00, 0.00, 0.00, 1486241652414
81, -155301.50, -154402.22, -153832.39, -153898.58, -157739.00, -154141.42, -161413.94, -35127.96, 0.00, 0.00, 0.00, 1486241652417
82, -155274.66, -154371.58, -153830.52, -153889.31, -157711.47, -154142.44, -161410.97, -35115.71, 0.00, 0.00, 0.00, 1486241652422
83, -155256.59, -154350.14, -153829.34, -153884.36, -157692.83, -154117.53, -161411.06, -35111.35, 0.00, 0.00, 0.00, 1486241652427
84, -155251.23, -154342.14, -153828.23, -153877.83, -157688.22, -154078.53, -161411.23, -35118.37, 0.00, 0.00, 0.00, 1486241652430
85, -155239.05, -154328.16, -153829.22, -153883.47, -157677.17, -154124.08, -161411.28, -35118.81, 0.00, 0.00, 0.00, 1486241652432
86, -155212.75, -154299.09, -153826.42, -153888.42, -157650.72, -154148.20, -161409.25, -35104.55, 0.00, 0.00, 0.00, 1486241652437
87, -155190.14, -154274.31, -153823.41, -153881.63, -157628.61, -154110.16, -161408.00, -35094.50, 0.00, 0.00, 0.00, 1486241652442
88, -155181.31, -154263.69, -153822.27, -153879.02, -157619.22, -154091.06, -161407.48, -35096.44, 0.00, 0.00, 0.00, 1486241652445
89, -155171.42, -154250.28, -153823.53, -153876.69, -157609.13, -154105.64, -161405.73, -35096.89, 0.02, -0.02, 1.04, 1486241652449
90, -155146.42, -154223.19, -153822.13, -153884.06, -157585.02, -154140.83, -161404.48, -35084.95, 0.00, 0.00, 0.00, 1486241652454
91, -155123.45, -154197.77, -153821.48, -153877.11, -157562.50, -154124.39, -161404.06, -35074.96, 0.00, 0.00, 0.00, 1486241652457
92, -155117.06, -154187.61, -153818.48, -153872.06, -157556.23, -154076.56, -161404.02, -35080.32, 0.00, 0.00, 0.00, 1486241652461
93, -155109.14, -154176.97, -153822.02, -153882.69, -157548.30, -154090.44, -161404.16, -35084.95, 0.00, 0.00, 0.00, 1486241652465
94, -155085.39, -154150.95, -153822.05, -153883.27, -157524.63, -154141.78, -161401.97, -35074.89, 0.00, 0.00, 0.00, 1486241652469
95, -155057.89, -154121.17, -153826.41, -153886.08, -157498.17, -154145.06, -161402.86, -35061.39, 0.00, 0.00, 0.00, 1486241652473
96, -155044.48, -154105.61, -153820.20, -153871.42, -157485.31, -154096.11, -161402.39, -35061.23, 0.00, 0.00, 0.00, 1486241652477
97, -155038.28, -154096.55, -153817.48, -153876.58, -157479.39, -154070.06, -161403.03, -35066.98, 0.00, 0.00, 0.00, 1486241652482
98, -155016.98, -153999.95, -153822.52, -153880.95, -157458.33, -154130.05, -161400.75, -35057.57, 0.00, 0.00, 0.00, 1486241652486
99, -154983.34, -153581.89, -153819.88, -153881.23, -157423.28, -154169.47, -161397.69, -35037.01, 0.02, -0.02, 1.04, 1486241652488
100, -154953.00, -153580.44, -153819.00, -153876.02, -157392.64, -154131.34, -161396.47, -35019.04, 0.00, 0.00, 0.00, 1486241652493
101, -154926.84, -153774.34, -153819.09, -153883.42, -157367.56, -154147.33, -161397.19, -35004.60, 0.00, 0.00, 0.00, 1486241652497
102, -154889.30, -153957.72, -153814.86, -153882.69, -157330.45, -154179.56, -161394.63, -34979.29, 0.00, 0.00, 0.00, 1486241652501
103, -154842.00, -154132.70, -153807.33, -153876.22, -157283.86, -154173.31, -161389.78, -34947.22, 0.00, 0.00, 0.00, 1486241652505
104, -154804.42, -154317.69, -153803.72, -153866.98, -157246.39, -154144.48, -161386.73, -34922.03, 0.00, 0.00, 0.00, 1486241652510
105, -154779.03, -154525.30, -153804.73, -153864.27, -157220.41, -154124.14, -161385.22, -34907.41, 0.00, 0.00, 0.00, 1486241652515
106, -154748.25, -155003.52, -153806.17, -153867.84, -157190.67, -154145.94, -161383.92, -34886.89, 0.00, 0.00, 0.00, 1486241652517
107, -154716.92, -155384.20, -153803.58, -153863.69, -157159.52, -154126.66, -161382.31, -34865.64, 0.00, 0.00, 0.00, 1486241652521
108, -154700.80, -155382.77, -153799.64, -153848.53, -157142.73, -154068.48, -161381.17, -34859.09, 0.00, 0.00, 0.00, 1486241652526
109, -154695.45, -155372.98, -153796.69, -153848.30, -157138.06, -154061.98, -161381.52, -34865.17, 0.02, -0.02, 1.04, 1486241652530
110, -154683.98, -155357.22, -153796.89, -153856.16, -157127.14, -154083.36, -161379.88, -34864.12, 0.00, 0.00, 0.00, 1486241652534
111, -154657.86, -155327.45, -153795.73, -153861.36, -157100.77, -154124.50, -161377.64, -34850.21, 0.00, 0.00, 0.00, 1486241652538
112, -154633.88, -155301.02, -153792.00, -153853.36, -157076.91, -154090.39, -161374.56, -34840.58, 0.00, 0.00, 0.00, 1486241652542
113, -154625.61, -155290.13, -153792.72, -153846.00, -157069.59, -154047.95, -161374.72, -34846.35, 0.00, 0.00, 0.00, 1486241652545
114, -154615.70, -155278.03, -153792.33, -153851.03, -157060.42, -154079.59, -161376.14, -34851.11, 0.00, 0.00, 0.00, 1486241652549
115, -154590.63, -155249.48, -153795.06, -153860.81, -157035.95, -154116.92, -161375.83, -34839.30, 0.00, 0.00, 0.00, 1486241652553
116, -154568.59, -155222.56, -153792.09, -153852.59, -157013.56, -154091.45, -161375.03, -34828.96, 0.00, 0.00, 0.00, 1486241652558
117, -154560.00, -155210.63, -153787.23, -153847.14, -157005.11, -154057.42, -161374.94, -34832.44, 0.00, 0.00, 0.00, 1486241652562
118, -154552.14, -155200.14, -153790.45, -153849.83, -156996.86, -154065.67, -161373.73, -34836.24, 0.00, 0.00, 0.00, 1486241652565
119, -154529.70, -155173.98, -153790.50, -153852.66, -156974.47, -154105.97, -161371.52, -34826.16, 0.02, -0.01, 1.04, 1486241652569
120, -154502.11, -155143.47, -153786.39, -153848.59, -156947.34, -154105.27, -161370.84, -34809.98, 0.00, 0.00, 0.00, 1486241652572
121, -154489.86, -155129.17, -153785.39, -153843.97, -156935.97, -154056.80, -161369.91, -34809.87, 0.00, 0.00, 0.00, 1486241652577
122, -154483.19, -155119.84, -153789.25, -153844.86, -156928.94, -154052.59, -161370.48, -34815.23, 0.00, 0.00, 0.00, 1486241652582
123, -154462.78, -155097.19, -153788.88, -153849.02, -156909.31, -154104.30, -161370.20, -34808.35, 0.00, 0.00, 0.00, 1486241652586
124, -154436.98, -155066.88, -153787.75, -153848.53, -156882.31, -154104.05, -161367.83, -34794.56, 0.00, 0.00, 0.00, 1486241652589
125, -154423.56, -155049.36, -153784.00, -153840.38, -156869.48, -154052.42, -161368.25, -34794.45, 0.00, 0.00, 0.00, 1486241652593
126, -154418.23, -155040.50, -153786.28, -153839.39, -156864.50, -154043.30, -161368.56, -34801.55, 0.00, 0.00, 0.00, 1486241652596
127, -154401.98, -155021.23, -153785.25, -153842.47, -156847.92, -154089.95, -161366.20, -34796.03, 0.00, 0.00, 0.00, 1486241652601
128, -154373.45, -154990.14, -153781.67, -153843.72, -156819.56, -154104.34, -161364.64, -34780.07, 0.00, 0.00, 0.00, 1486241652605
129, -154356.09, -154969.98, -153782.92, -153841.00, -156801.97, -154061.98, -161363.31, -34776.77, 0.02, -0.02, 1.04, 1486241652610
130, -154348.42, -154959.39, -153786.61, -153843.94, -156795.25, -154062.61, -161367.44, -34781.28, 0.00, 0.00, 0.00, 1486241652613
131, -154335.02, -154942.94, -153782.08, -153835.42, -156781.23, -154063.17, -161365.50, -34779.87, 0.00, 0.00, 0.00, 1486241652618
132, -154310.83, -154914.44, -153779.19, -153839.98, -156755.50, -154107.86, -161361.70, -34769.28, 0.00, 0.00, 0.00, 1486241652620
133, -154291.98, -154891.92, -153776.98, -153835.00, -156735.66, -154066.19, -161361.31, -34763.64, 0.00, 0.00, 0.00, 1486241652624
134, -154285.17, -154882.77, -153778.25, -153829.17, -156730.34, -154031.45, -161360.72, -34770.13, 0.00, 0.00, 0.00, 1486241652629
135, -154272.61, -154867.81, -153779.97, -153838.09, -156718.47, -154075.58, -161362.11, -34771.09, 0.00, 0.00, 0.00, 1486241652633
136, -154244.52, -154837.28, -153780.64, -153844.69, -156691.27, -154112.72, -161362.25, -34755.29, 0.00, 0.00, 0.00, 1486241652639
137, -154221.80, -154813.08, -153776.84, -153833.55, -156669.25, -154069.86, -161361.53, -34744.40, 0.00, 0.00, 0.00, 1486241652641
138, -154213.53, -154803.17, -153778.72, -153830.05, -156661.67, -154033.36, -161359.52, -34748.00, 0.00, 0.00, 0.00, 1486241652645
139, -154205.00, -154791.45, -153776.58, -153826.44, -156653.17, -154043.55, -161357.30, -34751.29, 0.01, -0.02, 1.03, 1486241652649
140, -154183.47, -154765.91, -153771.38, -153830.53, -156631.05, -154082.42, -161355.61, -34742.48, 0.00, 0.00, 0.00, 1486241652653
141, -154160.02, -154739.63, -153770.50, -153830.84, -156607.67, -154081.03, -161353.28, -34732.82, 0.00, 0.00, 0.00, 1486241652657
142, -154148.17, -154725.19, -153777.98, -153842.94, -156596.56, -154048.75, -161356.55, -34736.60, 0.00, 0.00, 0.00, 1486241652660
143, -154139.45, -154712.94, -153776.59, -153833.63, -156588.45, -154059.42, -161357.48, -34742.03, 0.00, 0.00, 0.00, 1486241652665
144, -154115.58, -154686.50, -153776.00, -153836.03, -156564.36, -154097.97, -161357.06, -34732.48, 0.00, 0.00, 0.00, 1486241652669
145, -154089.66, -154658.42, -153773.16, -153826.84, -156538.69, -154069.73, -161352.92, -34720.13, 0.00, 0.00, 0.00, 1486241652673
146, -154078.38, -154644.73, -153764.73, -153817.41, -156528.41, -154020.53, -161350.13, -34722.90, 0.00, 0.00, 0.00, 1486241652677
147, -154071.47, -154635.94, -153768.64, -153820.61, -156522.88, -154038.42, -161351.36, -34729.29, 0.00, 0.00, 0.00, 1486241652681
148, -154054.05, -154614.30, -153769.14, -153828.52, -156505.17, -154076.30, -161351.81, -34724.48, 0.00, 0.00, 0.00, 1486241652685
149, -154027.94, -154584.33, -153768.98, -153833.17, -156478.66, -154084.38, -161350.22, -34712.91, 0.02, -0.02, 1.04, 1486241652688
150, -154012.36, -154566.16, -153769.45, -153834.48, -156463.69, -154051.66, -161351.19, -34710.74, 0.00, 0.00, 0.00, 1486241652692
151, -154005.66, -154557.09, -153766.78, -153828.20, -156457.91, -154029.23, -161350.91, -34716.13, 0.00, 0.00, 0.00, 1486241652698
152, -153987.28, -154536.52, -153768.80, -153828.50, -156440.30, -154072.22, -161349.13, -34710.52, 0.00, 0.00, 0.00, 1486241652702
153, -153959.92, -154506.45, -153763.95, -153820.83, -156412.34, -154072.05, -161345.08, -34696.14, 0.00, 0.00, 0.00, 1486241652705
154, -153945.98, -154486.98, -153761.20, -153817.59, -156396.30, -154037.25, -161345.34, -34692.75, 0.00, 0.00, 0.00, 1486241652709
155, -153950.39, -154477.17, -153763.84, -153820.44, -156389.77, -154036.59, -161346.83, -34698.85, 0.00, 0.00, 0.00, 1486241652713
156, -153960.55, -154460.92, -153765.83, -153821.53, -156375.97, -154058.98, -161346.63, -34696.99, 0.00, 0.00, 0.00, 1486241652717
157, -153971.11, -154429.30, -153764.33, -153826.23, -156347.91, -154098.16, -161345.88, -34682.26, 0.00, 0.00, 0.00, 1486241652720
158, -153958.31, -154403.97, -153763.03, -153822.38, -156326.13, -154059.30, -161345.41, -34674.30, 0.00, 0.00, 0.00, 1486241652726
159, -153942.19, -154394.25, -153759.92, -153815.58, -156318.69, -154012.05, -161345.13, -34679.98, 0.02, -0.02, 1.03, 1486241652730
160, -153958.03, -154377.66, -153760.58, -153824.67, -156305.25, -154056.02, -161345.17, -34679.00, 0.00, 0.00, 0.00, 1486241652733
161, -153967.91, -154345.09, -153763.50, -153825.69, -156275.14, -154090.38, -161342.00, -34662.48, 0.00, 0.00, 0.00, 1486241652737
162, -153948.33, -154319.05, -153758.06, -153807.83, -156251.16, -154042.73, -161338.38, -34651.26, 0.00, 0.00, 0.00, 1486241652741
163, -153944.02, -154307.88, -153753.27, -153805.72, -156243.77, -154028.84, -161339.48, -34655.04, 0.00, 0.00, 0.00, 1486241652745
164, -153947.77, -154296.03, -153759.08, -153810.53, -156235.67, -154029.75, -161340.72, -34659.98, 0.00, 0.00, 0.00, 1486241652749
165, -153960.20, -154268.11, -153758.34, -153816.61, -156210.84, -154083.22, -161337.81, -34649.47, 0.00, 0.00, 0.00, 1486241652754
166, -153955.33, -154238.39, -153757.13, -153813.39, -156183.23, -154072.95, -161336.94, -34634.83, 0.00, 0.00, 0.00, 1486241652758
167, -153944.28, -154224.70, -153753.67, -153805.39, -156171.81, -154019.31, -161337.84, -34635.28, 0.00, 0.00, 0.00, 1486241652761
168, -153939.86, -154213.00, -153750.92, -153806.78, -156162.27, -154021.91, -161335.20, -34638.74, 0.00, 0.00, 0.00, 1486241652765
169, -153960.95, -154185.09, -153755.61, -153819.98, -156137.75, -154081.67, -161332.81, -34627.34, 0.02, -0.02, 1.04, 1486241652769
170, -153952.89, -154152.69, -153753.11, -153814.27, -156107.28, -154069.09, -161333.48, -34611.41, 0.00, 0.00, 0.00, 1486241652773
171, -153938.56, -154137.88, -153746.56, -153802.86, -156094.66, -154025.95, -161333.23, -34612.28, 0.00, 0.00, 0.00, 1486241652777
172, -153938.94, -154128.70, -153748.03, -153804.38, -156089.47, -154009.61, -161333.25, -34619.99, 0.00, 0.00, 0.00, 1486241652781
173, -153947.44, -154106.16, -153750.33, -153807.27, -156069.95, -154054.41, -161330.73, -34613.33, 0.00, 0.00, 0.00, 1486241652786
174, -153946.06, -154072.92, -153750.42, -153809.52, -156039.47, -154070.53, -161328.58, -34595.98, 0.00, 0.00, 0.00, 1486241652788
175, -153932.34, -154052.47, -153743.20, -153799.95, -156023.42, -154023.56, -161328.94, -34592.81, 0.00, 0.00, 0.00, 1486241652793
176, -153933.55, -154041.88, -153745.17, -153803.75, -156014.59, -154017.23, -161329.72, -34597.82, 0.00, 0.00, 0.00, 1486241652797
177, -153929.08, -154022.00, -153745.16, -153800.25, -155996.48, -154046.11, -161326.95, -34592.99, 0.00, 0.00, 0.00, 1486241652801
178, -153934.00, -153962.31, -153742.94, -153803.00, -155966.80, -154070.81, -161324.56, -34576.56, 0.00, 0.00, 0.00, 1486241652805
179, -153954.61, -153593.11, -153740.64, -153799.17, -155942.23, -154057.47, -161325.39, -34565.88, 0.01, -0.02, 1.04, 1486241652810
180, -153952.59, -153460.20, -153744.45, -153806.11, -155917.56, -154071.78, -161325.34, -34555.66, 0.00, 0.00, 0.00, 1486241652814
181, -153968.69, -153633.97, -153747.61, -153817.64, -155881.22, -154105.38, -161323.52, -34531.95, 0.00, 0.00, 0.00, 1486241652817
182, -153970.03, -153800.77, -153740.48, -153811.42, -155832.42, -154118.00, -161319.94, -34493.93, 0.00, 0.00, 0.00, 1486241652821
183, -153952.08, -153974.95, -153739.58, -153802.95, -155790.02, -154083.28, -161316.17, -34463.37, 0.00, 0.00, 0.00, 1486241652825
184, -153938.00, -154162.91, -153734.98, -153790.30, -155759.78, -154049.92, -161313.73, -34445.85, 0.00, 0.00, 0.00, 1486241652829
185, -153947.02, -154347.11, -153733.03, -153796.14, -155726.94, -154078.09, -161309.67, -34424.79, 0.00, 0.00, 0.00, 1486241652833
186, -153962.56, -154575.09, -153733.86, -153804.89, -155678.53, -154131.56, -161306.95, -34387.53, 0.00, 0.00, 0.00, 1486241652837
187, -153931.45, -155130.06, -153727.52, -153785.19, -155641.70, -154042.89, -161305.98, -34362.72, 0.00, 0.00, 0.00, 1486241652843
188, -153907.33, -155323.63, -153726.08, -153776.52, -155633.31, -153984.52, -161306.31, -34367.21, 0.00, 0.00, 0.00, 1486241652845
189, -153911.67, -155311.14, -153723.16, -153777.73, -155624.70, -153989.25, -161304.84, -34372.45, 0.02, -0.02, 1.04, 1486241652850
190, -153922.95, -155282.02, -153719.41, -153784.09, -155600.08, -154035.39, -161301.61, -34362.32, 0.00, 0.00, 0.00, 1486241652852
191, -153925.89, -155250.00, -153720.39, -153785.03, -155571.78, -154044.73, -161300.83, -34348.75, 0.00, 0.00, 0.00, 1486241652856
192, -153910.22, -155233.00, -153720.19, -153771.28, -155558.44, -153986.75, -161300.52, -34349.31, 0.00, 0.00, 0.00, 1486241652861
193, -153909.66, -155220.28, -153720.41, -153774.23, -155549.55, -154002.53, -161301.88, -34355.64, 0.00, 0.00, 0.00, 1486241652865
194, -153926.98, -155192.16, -153721.28, -153785.89, -155525.53, -154062.59, -161303.08, -34345.80, 0.00, 0.00, 0.00, 1486241652870
195, -153920.14, -155161.31, -153716.63, -153779.13, -155497.75, -154034.05, -161301.22, -34332.03, 0.00, 0.00, 0.00, 1486241652872
196, -153902.73, -155146.77, -153711.67, -153768.73, -155486.69, -153976.53, -161298.09, -34334.56, 0.00, 0.00, 0.00, 1486241652877
197, -153899.48, -155137.59, -153717.66, -153772.84, -155481.67, -153975.17, -161297.38, -34342.70, 0.00, 0.00, 0.00, 1486241652882
198, -153917.11, -155113.30, -153714.64, -153775.84, -155462.33, -154018.88, -161296.13, -34337.11, 0.00, 0.00, 0.00, 1486241652885
199, -153919.14, -155079.89, -153716.39, -153777.06, -155432.55, -154038.09, -161294.08, -34322.00, 0.02, -0.02, 1.03, 1486241652889
200, -153907.45, -155057.56, -153715.06, -153769.38, -155413.33, -153989.64, -161294.25, -34315.58, 0.00, 0.00, 0.00, 1486241652893
201, -153893.56, -155047.92, -153709.59, -153766.05, -155406.69, -153970.55, -161293.73, -34322.02, 0.00, 0.00, 0.00, 1486241652897
202, -153913.34, -155027.63, -153712.73, -153771.33, -155389.56, -154026.78, -161294.45, -34318.22, 0.00, 0.00, 0.00, 1486241652901
203, -153915.36, -154995.38, -153712.30, -153773.67, -155360.47, -154030.97, -161293.72, -34302.48, 0.00, 0.00, 0.00, 1486241652904
204, -153898.69, -154974.72, -153710.17, -153764.95, -155343.36, -153989.64, -161292.55, -34298.19, 0.00, 0.00, 0.00, 1486241652910
205, -153893.20, -154964.66, -153712.30, -153767.14, -155337.17, -153975.31, -161291.23, -34304.47, 0.00, 0.00, 0.00, 1486241652913
206, -153897.70, -154948.17, -153708.38, -153761.47, -155323.09, -153992.25, -161289.22, -34305.95, 0.00, 0.00, 0.00, 1486241652916
207, -153914.89, -154916.47, -153705.98, -153768.89, -155293.81, -154043.86, -161286.92, -34293.41, 0.00, 0.00, 0.00, 1486241652922
208, -153904.50, -154888.53, -153706.55, -153763.34, -155269.05, -154000.23, -161287.19, -34280.31, 0.00, 0.00, 0.00, 1486241652924
209, -153893.61, -154876.55, -153704.36, -153757.56, -155261.06, -153965.69, -161286.86, -34284.20, 0.01, -0.02, 1.04, 1486241652928
210, -153898.03, -154861.95, -153706.28, -153766.47, -155248.86, -154000.88, -161286.63, -34283.98, 0.00, 0.00, 0.00, 1486241652933
211, -153912.39, -154830.81, -153706.84, -153765.13, -155219.77, -154027.70, -161285.95, -34266.95, 0.00, 0.00, 0.00, 1486241652938
212, -153896.50, -154804.64, -153706.73, -153757.38, -155197.00, -154000.92, -161283.77, -34256.08, 0.00, 0.00, 0.00, 1486241652941
213, -153887.48, -154792.02, -153704.94, -153753.70, -155187.48, -153961.81, -161284.89, -34258.61, 0.00, 0.00, 0.00, 1486241652944
214, -153893.00, -154778.97, -153705.47, -153762.30, -155177.31, -153998.86, -161285.44, -34259.57, 0.00, 0.00, 0.00, 1486241652948
215, -153910.91, -154749.02, -153709.08, -153772.53, -155150.27, -154028.59, -161283.67, -34243.36, 0.00, 0.00, 0.00, 1486241652953
216, -153904.20, -154717.00, -153702.48, -153762.14, -155121.23, -154018.33, -161281.39, -34227.36, 0.00, 0.00, 0.00, 1486241652957
217, -153889.67, -154700.98, -153700.94, -153758.25, -155108.97, -153982.84, -161282.50, -34227.43, 0.00, 0.00, 0.00, 1486241652961
218, -153890.58, -154688.73, -153703.05, -153760.53, -155102.03, -153971.06, -161284.39, -34231.11, 0.00, 0.00, 0.00, 1486241652966
219, -153901.03, -154664.03, -153698.61, -153755.20, -155080.80, -154007.63, -161281.44, -34223.40, 0.01, -0.01, 1.03, 1486241652969
220, -153898.50, -154634.59, -153695.27, -153755.09, -155053.53, -154010.06, -161277.80, -34209.66, 0.00, 0.00, 0.00, 1486241652972
221, -153884.22, -154618.30, -153693.73, -153748.88, -155039.98, -153977.36, -161277.47, -34208.32, 0.00, 0.00, 0.00, 1486241652977
222, -153880.73, -154609.27, -153697.88, -153748.69, -155034.23, -153944.66, -161277.80, -34212.38, 0.00, 0.00, 0.00, 1486241652983
223, -153896.50, -154587.14, -153697.55, -153753.00, -155014.63, -154007.58, -161276.39, -34203.96, 0.00, 0.00, 0.00, 1486241652987
224, -153898.28, -154553.23, -153697.09, -153757.20, -154983.08, -154018.53, -161273.08, -34185.36, 0.00, 0.00, 0.00, 1486241652990
225, -153884.02, -154531.66, -153692.75, -153740.48, -154965.33, -153984.83, -161273.22, -34181.14, 0.00, 0.00, 0.00, 1486241652994
226, -153873.56, -154523.33, -153688.84, -153742.38, -154959.88, -153956.58, -161273.38, -34188.36, 0.00, 0.00, 0.00, 1486241652997
227, -153890.39, -154502.77, -153698.13, -153755.08, -154942.16, -153993.56, -161272.19, -34181.76, 0.00, 0.00, 0.00, 1486241653000
228, -153889.03, -154471.89, -153692.84, -153744.70, -154914.86, -154006.13, -161269.06, -34166.36, 0.00, 0.00, 0.00, 1486241653005
229, -153879.31, -154450.28, -153686.48, -153738.38, -154896.58, -153971.70, -161268.97, -34160.41, 0.00, 0.00, 0.00, 1486241653009
230, -153868.70, -154441.00, -153685.77, -153741.28, -154890.19, -153946.61, -161268.55, -34165.67, 0.02, -0.02, 1.04, 1486241653014
231, -153883.95, -154424.48, -153685.05, -153747.27, -154876.30, -153983.70, -161267.81, -34163.57, 0.00, 0.00, 0.00, 1486241653017
232, -153894.55, -154390.80, -153685.25, -153753.22, -154844.36, -154020.23, -161266.00, -34144.93, 0.00, 0.00, 0.00, 1486241653021
233, -153883.86, -154361.83, -153690.13, -153753.53, -154819.39, -153998.94, -161267.47, -34133.10, 0.00, 0.00, 0.00, 1486241653025
234, -153874.92, -154350.39, -153685.56, -153740.67, -154811.44, -153943.44, -161269.38, -34137.64, 0.00, 0.00, 0.00, 1486241653028
235, -153874.36, -154336.94, -153687.14, -153741.97, -154801.20, -153956.84, -161267.36, -34140.12, 0.00, 0.00, 0.00, 1486241653033
236, -153888.88, -154308.53, -153685.31, -153743.86, -154776.42, -154008.13, -161263.50, -34127.87, 0.00, 0.00, 0.00, 1486241653038
237, -153881.39, -154281.38, -153681.27, -153740.25, -154751.69, -153990.55, -161262.72, -34116.79, 0.00, 0.00, 0.00, 1486241653042
238, -153866.31, -154269.61, -153676.33, -153730.48, -154743.27, -153936.39, -161261.33, -34122.51, 0.00, 0.00, 0.00, 1486241653046
239, -153872.94, -154258.14, -153678.63, -153741.91, -154734.45, -153967.39, -161262.22, -34126.51, 0.00, 0.00, 0.00, 1486241653050
240, -153888.78, -154227.50, -153683.30, -153744.59, -154706.91, -154017.86, -161261.59, -34111.53, 0.02, -0.01, 1.04, 1486241653054
241, -153871.80, -154198.36, -153677.64, -153731.06, -154679.52, -153971.84, -161258.48, -34097.07, 0.00, 0.00, 0.00, 1486241653056
242, -153869.72, -154184.39, -153678.19, -153731.92, -154668.17, -153958.55, -161259.36, -34098.41, 0.00, 0.00, 0.00, 1486241653060
243, -153865.63, -154174.33, -153675.95, -153732.09, -154659.97, -153948.69, -161259.25, -34103.26, 0.00, 0.00, 0.00, 1486241653065
244, -153880.13, -154150.08, -153678.63, -153744.28, -154638.33, -153998.58, -161259.31, -34094.70, 0.00, 0.00, 0.00, 1486241653070
245, -153879.89, -154117.53, -153676.17, -153738.69, -154609.25, -153987.44, -161257.33, -34079.08, 0.00, 0.00, 0.00, 1486241653073
246, -153860.11, -154100.56, -153672.69, -153730.73, -154595.88, -153932.91, -161255.14, -34078.05, 0.00, 0.00, 0.00, 1486241653077
247, -153863.06, -154090.81, -153670.19, -153728.19, -154589.70, -153942.84, -161254.78, -34083.64, 0.00, 0.00, 0.00, 1486241653080
248, -153873.61, -154067.00, -153670.39, -153733.17, -154568.83, -153995.28, -161253.50, -34076.66, 0.00, 0.00, 0.00, 1486241653085
249, -153870.55, -154034.89, -153667.09, -153730.02, -154539.44, -153987.78, -161250.11, -34062.76, 0.00, 0.00, 0.00, 1486241653089
250, -153859.88, -154014.63, -153671.48, -153726.05, -154522.39, -153943.28, -161248.81, -34059.03, 0.02, -0.01, 1.05, 1486241653094
251, -153851.95, -154004.91, -153671.72, -153719.38, -154515.59, -153931.11, -161249.28, -34064.46, 0.00, 0.00, 0.00, 1486241653097
252, -153856.48, -153988.97, -153666.34, -153725.34, -154502.38, -153968.84, -161249.55, -34062.76, 0.00, 0.00, 0.00, 1486241653101
253, -153860.27, -153957.52, -153665.78, -153729.53, -154473.53, -153989.92, -161248.36, -34046.94, 0.00, 0.00, 0.00, 1486241653106
254, -153841.22, -153935.28, -153665.56, -153721.91, -154453.86, -153947.50, -161247.30, -34039.71, 0.00, 0.00, 0.00, 1486241653109
255, -153841.83, -153925.08, -153669.59, -153726.17, -154445.14, -153933.73, -161248.50, -34042.96, 0.00, 0.00, 0.00, 1486241653112
0, -153861.11, -153763.33, -153670.50, -153725.59, -154427.66, -153975.38, -161246.91, -34038.00, 0.00, 0.00, 0.00, 1486241653117
1, -153908.00, -153356.47, -153674.61, -153741.50, -154386.11, -154059.50, -161245.75, -34007.53, 0.00, 0.00, 0.00, 1486241653122
2, -153872.06, -153429.45, -153664.53, -153724.31, -154343.47, -153983.55, -161240.83, -33974.70, 0.00, 0.00, 0.00, 1486241653126
3, -153867.89, -153620.94, -153656.22, -153718.78, -154316.34, -153981.44, -161237.95, -33957.64, 0.00, 0.00, 0.00, 1486241653130
4, -153878.08, -153805.50, -153665.48, -153731.00, -154283.73, -154020.25, -161239.91, -33937.30, 0.02, -0.01, 1.04, 1486241653133
5, -153886.14, -153971.70, -153663.70, -153733.53, -154236.00, -154039.17, -161235.38, -33901.14, 0.00, 0.00, 0.00, 1486241653138
6, -153868.16, -154140.70, -153656.53, -153722.53, -154189.92, -154005.86, -161230.97, -33866.73, 0.00, 0.00, 0.00, 1486241653141
7, -153855.14, -154330.09, -153648.77, -153714.33, -154159.38, -153973.11, -161228.56, -33848.07, 0.00, 0.00, 0.00, 1486241653145
8, -153865.02, -154719.23, -153651.72, -153718.63, -154127.70, -153990.28, -161227.69, -33829.03, 0.00, 0.00, 0.00, 1486241653149
9, -153855.30, -155204.63, -153651.73, -153709.16, -154093.50, -153979.58, -161225.08, -33807.23, 0.00, 0.00, 0.00, 1486241653153
10, -153840.69, -155228.02, -153643.52, -153694.97, -154064.89, -153946.98, -161223.17, -33792.82, 0.00, 0.00, 0.00, 1486241653157
11, -153830.00, -155212.03, -153639.94, -153692.58, -154053.89, -153910.89, -161223.81, -33795.03, 0.00, 0.00, 0.00, 1486241653160
12, -153829.08, -155200.31, -153640.83, -153696.83, -154047.48, -153918.88, -161224.73, -33802.00, 0.00, 0.00, 0.00, 1486241653165
13, -153847.98, -155174.05, -153644.77, -153710.19, -154024.69, -153971.86, -161223.48, -33793.47, 0.00, 0.00, 0.00, 1486241653169
14, -153843.39, -155140.59, -153638.02, -153698.69, -153995.17, -153957.11, -161222.55, -33777.89, 0.01, -0.01, 1.04, 1486241653173
15, -153827.22, -155121.89, -153635.38, -153690.41, -153980.20, -153903.16, -161220.69, -33776.48, 0.00, 0.00, 0.00, 1486241653177
16, -153826.72, -155110.86, -153636.88, -153689.45, -153972.42, -153908.61, -161219.03, -33779.83, 0.00, 0.00, 0.00, 1486241653182
17, -153839.20, -155087.78, -153636.41, -153698.88, -153952.19, -153948.89, -161217.78, -33772.23, 0.00, 0.00, 0.00, 1486241653185
18, -153852.34, -155051.86, -153641.61, -153712.78, -153920.20, -153978.59, -161217.98, -33751.71, 0.00, 0.00, 0.00, 1486241653188
19, -153819.56, -155030.27, -153635.63, -153694.61, -153902.44, -153904.63, -161217.19, -33744.76, 0.00, 0.00, 0.00, 1486241653193
20, -153826.42, -155021.84, -153637.08, -153689.73, -153897.91, -153902.84, -161218.59, -33752.12, 0.00, 0.00, 0.00, 1486241653197
21, -153833.17, -155003.17, -153635.06, -153699.11, -153882.44, -153930.17, -161217.73, -33748.81, 0.00, 0.00, 0.00, 1486241653201
22, -153840.50, -154968.86, -153640.44, -153707.59, -153850.89, -153955.66, -161216.05, -33730.82, 0.00, 0.00, 0.00, 1486241653204
23, -153829.78, -154944.19, -153635.88, -153690.92, -153828.88, -153917.92, -161213.88, -33722.55, 0.00, 0.00, 0.00, 1486241653210
24, -153816.00, -154932.94, -153633.03, -153684.69, -153820.83, -153877.58, -161212.53, -33726.41, 0.02, -0.02, 1.04, 1486241653213
25, -153827.58, -154916.56, -153634.84, -153695.08, -153808.23, -153919.72, -161212.33, -33724.96, 0.00, 0.00, 0.00, 1486241653216
26, -153842.94, -154883.80, -153635.92, -153697.70, -153786.23, -153957.02, -161210.20, -33708.46, 0.00, 0.00, 0.00, 1486241653220
27, -153824.77, -154855.56, -153630.58, -153678.61, -153775.73, -153906.75, -161208.80, -33698.41, 0.00, 0.00, 0.00, 1486241653224
28, -153813.91, -154844.52, -153628.05, -153680.16, -153771.80, -153878.81, -161209.45, -33703.01, 0.00, 0.00, 0.00, 1486241653228
29, -153822.89, -154829.56, -153629.56, -153688.59, -153776.20, -153918.67, -161209.88, -33703.28, 0.00, 0.00, 0.00, 1486241653233
30, -153838.88, -154795.34, -153627.92, -153693.09, -153788.80, -153973.47, -161207.86, -33687.21, 0.00, 0.00, 0.00, 1486241653237
31, -153822.33, -154762.06, -153625.02, -153687.33, -153778.19, -153931.81, -161205.58, -33671.20, 0.00, 0.00, 0.00, 1486241653241
32, -153807.22, -154745.86, -153624.39, -153676.42, -153759.34, -153864.52, -161203.45, -33668.52, 0.00, 0.00, 0.00, 1486241653245
33, -153815.72, -154732.27, -153623.17, -153675.09, -153765.41, -153903.80, -161203.95, -33667.87, 0.00, 0.00, 0.00, 1486241653248
34, -153829.97, -154703.02, -153622.47, -153686.67, -153779.19, -153953.20, -161202.20, -33651.80, 0.02, -0.01, 1.04, 1486241653252
35, -153819.17, -154668.19, -153624.45, -153686.70, -153774.39, -153927.42, -161199.86, -33631.42, 0.00, 0.00, 0.00, 1486241653256
36, -153803.78, -154652.41, -153619.89, -153665.75, -153753.42, -153865.20, -161198.25, -33631.91, 0.00, 0.00, 0.00, 1486241653260
37, -153805.95, -154640.92, -153621.03, -153669.56, -153755.30, -153882.84, -161198.58, -33636.04, 0.00, 0.00, 0.00, 1486241653265
38, -153823.94, -154614.70, -153622.91, -153679.75, -153773.00, -153946.05, -161197.58, -33623.37, 0.00, 0.00, 0.00, 1486241653269
39, -153816.86, -154577.27, -153621.66, -153681.78, -153775.39, -153959.22, -161194.22, -33602.11, 0.00, 0.00, 0.00, 1486241653272
40, -153802.59, -154555.64, -153610.70, -153663.70, -153754.09, -153872.31, -161191.59, -33596.95, 0.00, 0.00, 0.00, 1486241653276
41, -153805.72, -154543.28, -153614.06, -153665.58, -153758.94, -153885.52, -161193.44, -33601.62, 0.00, 0.00, 0.00, 1486241653280
42, -153819.58, -154517.92, -153611.55, -153671.64, -153769.92, -153941.64, -161193.56, -33592.70, 0.00, 0.00, 0.00, 1486241653285
43, -153817.48, -154481.22, -153609.94, -153679.66, -153766.47, -153935.39, -161191.66, -33572.23, 0.00, 0.00, 0.00, 1486241653288
44, -153797.09, -154458.59, -153610.34, -153670.34, -153752.48, -153883.42, -161189.91, -33564.79, 0.02, -0.02, 1.04, 1486241653294
45, -153792.83, -154447.83, -153610.39, -153660.13, -153744.25, -153865.31, -161189.88, -33568.21, 0.00, 0.00, 0.00, 1486241653314
46, -153805.45, -154428.52, -153609.86, -153672.97, -153749.59, -153901.23, -161187.14, -33564.41, 0.00, 0.00, 0.00, 1486241653314
47, -153817.56, -154392.08, -153607.13, -153672.06, -153766.86, -153956.03, -161184.44, -33542.97, 0.00, 0.00, 0.00, 1486241653314
48, -153807.94, -154361.98, -153605.86, -153664.19, -153753.94, -153908.88, -161185.33, -33527.13, 0.00, 0.00, 0.00, 1486241653314
49, -153790.55, -154348.94, -153607.17, -153654.09, -153744.13, -153857.09, -161186.00, -33528.64, 0.00, 0.00, 0.00, 1486241653314
50, -153800.83, -154330.98, -153605.61, -153664.53, -153754.19, -153907.31, -161185.89, -33526.48, 0.00, 0.00, 0.00, 1486241653317
51, -153815.92, -154294.17, -153605.41, -153668.22, -153764.97, -153945.56, -161184.25, -33504.95, 0.00, 0.00, 0.00, 1486241653320
52, -153792.78, -154267.64, -153600.52, -153655.52, -153746.17, -153872.91, -161181.47, -33493.80, 0.00, 0.00, 0.00, 1486241653325
53, -153798.19, -154255.22, -153601.00, -153655.56, -153745.03, -153874.91, -161183.83, -33495.45, 0.00, 0.00, 0.00, 1486241653329
54, -153798.25, -154239.48, -153606.69, -153660.61, -153748.39, -153885.00, -161183.14, -33494.71, 0.02, -0.02, 1.04, 1486241653333
55, -153812.77, -154205.17, -153606.13, -153672.16, -153762.81, -153951.56, -161181.84, -33476.68, 0.00, 0.00, 0.00, 1486241653336
56, -153796.45, -154171.06, -153600.17, -153663.03, -153745.08, -153906.55, -161179.14, -33457.66, 0.00, 0.00, 0.00, 1486241653340
57, -153779.53, -154155.97, -153598.30, -153657.89, -153737.08, -153853.98, -161178.58, -33456.02, 0.00, 0.00, 0.00, 1486241653344
58, -153794.50, -154143.64, -153599.44, -153654.31, -153744.33, -153862.91, -161178.89, -33458.01, 0.00, 0.00, 0.00, 1486241653349
59, -153809.64, -154113.63, -153597.42, -153662.34, -153759.52, -153938.09, -161177.33, -33442.28, 0.00, 0.00, 0.00, 1486241653353
60, -153798.69, -154079.94, -153594.08, -153654.80, -153747.05, -153911.25, -161176.61, -33423.79, 0.00, 0.00, 0.00, 1486241653356
61, -153772.27, -154064.78, -153589.53, -153645.19, -153728.45, -153839.27, -161174.67, -33422.65, 0.00, 0.00, 0.00, 1486241653361
62, -153785.61, -154053.52, -153594.52, -153651.11, -153740.19, -153882.91, -161174.53, -33424.60, 0.00, 0.00, 0.00, 1486241653365
63, -153797.66, -154025.95, -153594.80, -153653.53, -153742.53, -153900.34, -161172.59, -33412.35, 0.00, 0.00, 0.00, 1486241653368
64, -153796.38, -153989.52, -153590.39, -153656.44, -153744.17, -153925.34, -161169.28, -33393.19, 0.02, -0.02, 1.03, 1486241653372
65, -153776.69, -153967.33, -153589.30, -153644.05, -153730.83, -153860.16, -161168.70, -33387.63, 0.00, 0.00, 0.00, 1486241653377
66, -153778.56, -153956.38, -153588.98, -153643.73, -153727.84, -153852.89, -161171.06, -33391.63, 0.00, 0.00, 0.00, 1486241653382
67, -153785.83, -153933.08, -153591.17, -153655.30, -153739.27, -153907.80, -161169.81, -33384.43, 0.00, 0.00, 0.00, 1486241653385
68, -153780.42, -153900.06, -153585.33, -153650.41, -153733.81, -153896.38, -161166.00, -33368.34, 0.00, 0.00, 0.00, 1486241653389
69, -153762.41, -153877.72, -153582.63, -153643.45, -153726.78, -153857.41, -161165.13, -33361.77, 0.00, 0.00, 0.00, 1486241653393
70, -153756.69, -153867.03, -153581.73, -153638.27, -153726.95, -153842.16, -161166.52, -33365.90, 0.00, 0.00, 0.00, 1486241653396
71, -153782.52, -153780.78, -153584.17, -153647.61, -153739.55, -153893.77, -161165.55, -33359.69, 0.00, 0.00, 0.00, 1486241653401
72, -153828.59, -153350.39, -153587.55, -153661.47, -153758.58, -154007.25, -161162.80, -33327.75, 0.00, 0.00, 0.00, 1486241653405
73, -153800.09, -153312.42, -153585.02, -153651.56, -153734.56, -153917.84, -161159.58, -33295.38, 0.00, 0.00, 0.00, 1486241653410
74, -153783.11, -153499.97, -153575.08, -153638.33, -153729.13, -153893.95, -161156.45, -33277.43, 0.02, -0.01, 1.04, 1486241653412
75, -153800.52, -153680.00, -153575.09, -153646.17, -153736.08, -153938.11, -161153.97, -33250.90, 0.00, 0.00, 0.00, 1486241653416
76, -153805.70, -153841.86, -153576.02, -153651.86, -153742.31, -153972.64, -161150.75, -33211.36, 0.00, 0.00, 0.00, 1486241653421
77, -153787.75, -154007.67, -153571.33, -153640.66, -153733.95, -153944.45, -161146.84, -33173.47, 0.00, 0.00, 0.00, 1486241653425
78, -153777.81, -154191.84, -153564.73, -153628.72, -153719.78, -153888.20, -161144.05, -33152.69, 0.00, 0.00, 0.00, 1486241653428
79, -153784.44, -154503.61, -153561.80, -153630.34, -153725.77, -153921.23, -161142.59, -33130.45, 0.00, 0.00, 0.00, 1486241653432
80, -153774.61, -155042.28, -153561.11, -153628.97, -153722.38, -153909.22, -161138.91, -33100.96, 0.00, 0.00, 0.00, 1486241653437
81, -153769.02, -155115.67, -153558.88, -153619.28, -153718.06, -153909.14, -161138.14, -33081.52, 0.00, 0.00, 0.00, 1486241653441
82, -153741.02, -155098.28, -153555.50, -153607.08, -153697.42, -153808.73, -161137.83, -33081.77, 0.00, 0.00, 0.00, 1486241653443
83, -153747.23, -155084.25, -153559.63, -153608.94, -153703.48, -153822.08, -161137.50, -33085.43, 0.00, 0.00, 0.00, 1486241653449
84, -153758.58, -155056.22, -153556.30, -153617.83, -153710.34, -153867.86, -161135.02, -33075.26, 0.01, -0.01, 1.04, 1486241653453
85, -153757.00, -155022.78, -153550.83, -153616.69, -153702.33, -153854.63, -161133.14, -33057.87, 0.00, 0.00, 0.00, 1486241653456
86, -153747.23, -155004.56, -153550.17, -153609.92, -153698.19, -153822.63, -161132.14, -33054.12, 0.00, 0.00, 0.00, 1486241653460
87, -153737.47, -154992.89, -153549.73, -153610.48, -153699.73, -153833.97, -161131.64, -33056.24, 0.00, 0.00, 0.00, 1486241653466
88, -153756.27, -154965.69, -153549.27, -153611.17, -153702.50, -153864.80, -161129.27, -33044.62, 0.00, 0.00, 0.00, 1486241653468
89, -153758.06, -154928.67, -153548.64, -153612.36, -153704.73, -153878.28, -161127.81, -33026.76, 0.00, 0.00, 0.00, 1486241653471
90, -153737.50, -154905.25, -153548.83, -153606.69, -153696.38, -153838.63, -161127.59, -33020.03, 0.00, 0.00, 0.00, 1486241653477
91, -153726.58, -154896.22, -153545.64, -153595.89, -153683.66, -153779.66, -161126.95, -33026.18, 0.00, 0.00, 0.00, 1486241653481
92, -153749.36, -154877.56, -153545.02, -153604.17, -153695.16, -153842.52, -161126.48, -33022.78, 0.00, 0.00, 0.00, 1486241653485
93, -153751.81, -154841.91, -153545.55, -153609.66, -153700.89, -153876.64, -161123.13, -33002.59, 0.00, 0.00, 0.00, 1486241653489
94, -153733.45, -154818.22, -153542.53, -153596.28, -153683.27, -153813.59, -161123.19, -32996.14, 0.02, -0.01, 1.04, 1486241653494
95, -153732.47, -154806.56, -153543.45, -153596.44, -153684.67, -153811.52, -161124.88, -33001.37, 0.00, 0.00, 0.00, 1486241653497
96, -153745.16, -154783.95, -153548.52, -153602.72, -153695.69, -153851.33, -161123.14, -32995.71, 0.00, 0.00, 0.00, 1486241653499
97, -153756.13, -154746.42, -153547.11, -153610.97, -153697.03, -153876.64, -161120.91, -32974.68, 0.00, 0.00, 0.00, 1486241653504
98, -153732.44, -154719.69, -153542.59, -153599.53, -153686.25, -153821.55, -161118.67, -32963.39, 0.00, 0.00, 0.00, 1486241653509
99, -153729.02, -154707.64, -153544.91, -153591.70, -153685.36, -153813.70, -161119.75, -32965.56, 0.00, 0.00, 0.00, 1486241653513
100, -153734.33, -154692.11, -153541.19, -153592.78, -153683.23, -153808.63, -161119.13, -32967.08, 0.00, 0.00, 0.00, 1486241653516
101, -153750.41, -154658.53, -153541.28, -153603.58, -153694.97, -153874.80, -161116.38, -32950.18, 0.00, 0.00, 0.00, 1486241653521
102, -153728.28, -154628.72, -153532.88, -153589.02, -153684.91, -153830.78, -161114.41, -32935.88, 0.00, 0.00, 0.00, 1486241653524
103, -153720.86, -154615.30, -153533.66, -153580.22, -153672.03, -153807.78, -161112.75, -32936.14, 0.00, 0.00, 0.00, 1486241653527
104, -153727.72, -154599.13, -153533.13, -153587.70, -153677.27, -153814.44, -161112.70, -32936.10, 0.02, -0.02, 1.04, 1486241653532
105, -153740.75, -154566.05, -153533.53, -153595.48, -153689.27, -153868.53, -161111.13, -32920.16, 0.00, 0.00, 0.00, 1486241653537
106, -153729.23, -154534.41, -153531.67, -153587.30, -153679.72, -153834.06, -161108.78, -32905.12, 0.00, 0.00, 0.00, 1486241653541
107, -153708.03, -154521.03, -153526.59, -153573.78, -153666.81, -153770.88, -161108.17, -32907.71, 0.00, 0.00, 0.00, 1486241653545
108, -153713.91, -154511.64, -153524.84, -153580.48, -153668.39, -153780.63, -161107.39, -32915.47, 0.00, 0.00, 0.00, 1486241653550
109, -153737.89, -154482.00, -153527.28, -153592.16, -153686.64, -153857.69, -161106.20, -32903.76, 0.00, 0.00, 0.00, 1486241653553
110, -153735.30, -154446.19, -153528.73, -153589.45, -153686.14, -153865.09, -161105.00, -32884.82, 0.00, 0.00, 0.00, 1486241653555
111, -153717.30, -154426.63, -153528.52, -153580.97, -153670.89, -153802.81, -161106.25, -32879.73, 0.00, 0.00, 0.00, 1486241653560
112, -153709.45, -154415.66, -153522.81, -153577.53, -153665.75, -153776.75, -161104.59, -32882.41, 0.00, 0.00, 0.00, 1486241653564
113, -153727.81, -154390.92, -153521.63, -153588.05, -153678.23, -153845.52, -161103.75, -32873.52, 0.00, 0.00, 0.00, 1486241653568
114, -153732.47, -154355.23, -153522.19, -153589.14, -153681.73, -153863.75, -161101.56, -32854.38, 0.01, -0.02, 1.03, 1486241653573
115, -153705.03, -154332.95, -153525.28, -153583.14, -153660.89, -153783.89, -161100.22, -32848.14, 0.00, 0.00, 0.00, 1486241653576
116, -153711.16, -154323.03, -153524.77, -153580.19, -153663.88, -153789.50, -161102.52, -32854.52, 0.00, 0.00, 0.00, 1486241653580
117, -153729.53, -154299.42, -153523.52, -153581.95, -153677.53, -153839.27, -161103.52, -32847.86, 0.00, 0.00, 0.00, 1486241653584
118, -153728.75, -154263.83, -153519.80, -153580.89, -153673.84, -153846.77, -161101.05, -32828.74, 0.00, 0.00, 0.00, 1486241653589
119, -153706.61, -154241.36, -153517.72, -153572.97, -153656.77, -153788.38, -161097.11, -32821.52, 0.00, 0.00, 0.00, 1486241653592
120, -153709.30, -154227.97, -153517.61, -153576.17, -153658.06, -153794.77, -161098.66, -32824.74, 0.00, 0.00, 0.00, 1486241653597
121, -153715.00, -154207.11, -153514.80, -153578.42, -153667.86, -153812.67, -161097.67, -32820.61, 0.00, 0.00, 0.00, 1486241653601
122, -153731.14, -154172.66, -153514.48, -153584.47, -153671.81, -153850.16, -161094.31, -32802.30, 0.00, 0.00, 0.00, 1486241653604
123, -153712.34, -154145.61, -153516.38, -153573.31, -153660.73, -153802.42, -161094.14, -32791.39, 0.00, 0.00, 0.00, 1486241653608
124, -153698.92, -154134.63, -153514.80, -153561.17, -153659.63, -153792.14, -161094.72, -32796.87, 0.00, 0.00, 0.00, 1486241653612
125, -153715.83, -154118.47, -153514.28, -153573.69, -153661.63, -153791.22, -161095.45, -32797.36, 0.02, -0.02, 1.03, 1486241653616
126, -153720.23, -154086.23, -153513.66, -153575.64, -153668.95, -153835.42, -161092.91, -32782.12, 0.00, 0.00, 0.00, 1486241653621
127, -153698.06, -154058.20, -153507.33, -153562.27, -153653.67, -153792.67, -161088.03, -32769.69, 0.00, 0.00, 0.00, 1486241653625
128, -153694.17, -154044.84, -153506.05, -153561.59, -153652.25, -153778.56, -161087.16, -32771.05, 0.00, 0.00, 0.00, 1486241653629
129, -153703.80, -154028.53, -153514.14, -153564.75, -153653.23, -153790.17, -161086.83, -32769.55, 0.00, 0.00, 0.00, 1486241653632
130, -153721.80, -153996.66, -153512.56, -153574.89, -153669.91, -153851.88, -161086.92, -32752.97, 0.00, 0.00, 0.00, 1486241653636
131, -153705.70, -153963.33, -153508.63, -153569.69, -153655.31, -153797.78, -161084.66, -32734.64, 0.00, 0.00, 0.00, 1486241653640
132, -153686.09, -153950.66, -153505.39, -153557.34, -153645.38, -153748.55, -161084.08, -32737.19, 0.00, 0.00, 0.00, 1486241653644
133, -153694.97, -153939.67, -153505.14, -153557.17, -153649.64, -153782.81, -161084.41, -32741.95, 0.00, 0.00, 0.00, 1486241653649
134, -153707.13, -153912.63, -153505.36, -153565.28, -153649.95, -153814.59, -161081.64, -32731.67, 0.00, 0.00, 0.00, 1486241653653
135, -153704.69, -153878.55, -153502.44, -153564.81, -153660.13, -153843.45, -161080.45, -32713.88, 0.02, -0.02, 1.03, 1486241653657
136, -153687.39, -153858.27, -153500.36, -153554.77, -153639.52, -153765.33, -161081.02, -32708.02, 0.00, 0.00, 0.00, 1486241653659
137, -153682.98, -153847.92, -153498.83, -153547.69, -153633.03, -153740.39, -161079.39, -32713.83, 0.00, 0.00, 0.00, 1486241653664
138, -153697.70, -153823.52, -153496.58, -153558.41, -153651.52, -153819.63, -161076.55, -32707.71, 0.00, 0.00, 0.00, 1486241653668
139, -153694.55, -153788.31, -153499.64, -153561.67, -153653.27, -153834.33, -161075.92, -32688.96, 0.00, 0.00, 0.00, 1486241653672
140, -153670.67, -153768.83, -153499.50, -153550.98, -153638.78, -153762.83, -161076.72, -32685.00, 0.00, 0.00, 0.00, 1486241653676
141, -153670.50, -153759.25, -153497.31, -153550.25, -153639.22, -153768.17, -161076.55, -32691.57, 0.00, 0.00, 0.00, 1486241653681
