%OpenBCI Raw EEG Data
%
%Sample Rate = 250.0 Hz
%First Column = SampleIndex
%Last Column = Timestamp 
%Other Columns = EEG data in microvolts followed by Accel Data (in G) interleaved with Aux Data
0, 28627.69, -28089.23, 40873.32, 12929.43, 4041.75, 43442.49, -187500.02, -22903.21, 0.018, -0.018, 1.040, 14:54:13.260
1, 28621.81, -28121.69, 40863.43, 12917.12, 4030.06, 43240.41, -187500.02, -23030.21, 0.000, 0.000, 0.000, 14:54:13.265
2, 28618.72, -28105.78, 40866.61, 12922.68, 4033.55, 43438.45, -187500.02, -23121.18, 0.000, 0.000, 0.000, 14:54:13.269
3, 28618.59, -28074.86, 40870.77, 12934.48, 4042.85, 43649.71, -187500.02, -23214.92, 0.000, 0.000, 0.000, 14:54:13.273
4, 28619.49, -28086.96, 40866.72, 12934.64, 4041.26, 43488.65, -187500.02, -23331.35, 0.000, 0.000, 0.000, 14:54:13.276
5, 28617.07, -28117.64, 40855.95, 12924.94, 4032.23, 43245.66, -187500.02, -23467.48, 0.000, 0.000, 0.000, 14:54:13.280
6, 28611.55, -28110.65, 40854.14, 12929.03, 4033.93, 43390.46, -187500.02, -23550.29, 0.000, 0.000, 0.000, 14:54:13.284
7, 28613.88, -28076.94, 40860.46, 12943.09, 4047.70, 43647.68, -187500.02, -23622.73, 0.016, -0.020, 1.040, 14:54:13.288
8, 28622.75, -28081.43, 40858.61, 12942.20, 4048.55, 43533.87, -187500.02, -23747.70, 0.000, 0.000, 0.000, 14:54:13.292
9, 28618.86, -28116.95, 40851.12, 12928.90, 4033.17, 43260.53, -187500.02, -23892.85, 0.000, 0.000, 0.000, 14:54:13.296
10, 28613.50, -28114.00, 40848.95, 12928.79, 4034.67, 43336.72, -187500.02, -23978.79, 0.000, 0.000, 0.000, 14:54:13.301
11, 28615.33, -28078.64, 40858.74, 12941.06, 4046.74, 43618.58, -187500.02, -24057.94, 0.000, 0.000, 0.000, 14:54:13.304
12, 28623.04, -28076.00, 40860.82, 12937.61, 4048.21, 43572.45, -187500.02, -24181.26, 0.000, 0.000, 0.000, 14:54:13.308
13, 28617.14, -28109.17, 40851.77, 12923.64, 4036.52, 43296.18, -187500.02, -24320.84, 0.000, 0.000, 0.000, 14:54:13.312
14, 28608.55, -28119.63, 40850.72, 12923.02, 4032.48, 43293.11, -187500.02, -24407.52, 0.000, 0.000, 0.000, 14:54:13.316
15, 28617.68, -28086.91, 40859.90, 12934.42, 4044.57, 43581.74, -187500.02, -24478.24, 0.000, 0.000, 0.000, 14:54:13.321
16, 28635.96, -28070.50, 40866.83, 12938.37, 4052.44, 43618.33, -187500.02, -24563.87, 0.000, 0.000, 0.000, 14:54:13.325
17, 28620.20, -28102.69, 40858.72, 12926.46, 4039.54, 43346.09, -187500.02, -24679.32, 0.020, -0.018, 1.040, 14:54:13.328
18, 28618.01, -28114.78, 40862.63, 12928.76, 4039.92, 43266.45, -187500.02, -24789.63, 0.000, 0.000, 0.000, 14:54:13.332
19, 28623.55, -28083.38, 40874.41, 12945.12, 4052.53, 43540.75, -187500.02, -24873.11, 0.000, 0.000, 0.000, 14:54:13.336
20, 28624.51, -28065.50, 40876.96, 12948.57, 4055.77, 43634.49, -187500.02, -24994.26, 0.000, 0.000, 0.000, 14:54:13.340
21, 28620.02, -28094.85, 40868.55, 12936.92, 4041.15, 43394.73, -187500.02, -25110.37, 0.000, 0.000, 0.000, 14:54:13.344
22, 28621.88, -28128.04, 40862.63, 12922.46, 4022.53, 43243.32, -187500.02, -25206.73, 0.000, 0.000, 0.000, 14:54:13.347
23, 28616.07, -28113.51, 40861.78, 12920.94, 4019.34, 43471.66, -187500.02, -25286.62, 0.000, 0.000, 0.000, 14:54:13.352
24, 28614.88, -28069.74, 40873.45, 12945.48, 4047.77, 43642.96, -187500.02, -25374.06, 0.000, 0.000, 0.000, 14:54:13.356
25, 28619.11, -28079.04, 40871.48, 12946.33, 4052.91, 43441.11, -187500.02, -25499.90, 0.000, 0.000, 0.000, 14:54:13.360
26, 28616.85, -28110.80, 40859.79, 12930.44, 4040.28, 43230.38, -187500.02, -25628.06, 0.000, 0.000, 0.000, 14:54:13.364
27, 28618.97, -28095.90, 40860.71, 12936.12, 4043.79, 43423.29, -187500.02, -25716.55, 0.018, -0.016, 1.042, 14:54:13.367
28, 28628.87, -28057.54, 40876.06, 12957.08, 4064.64, 43653.13, -187500.02, -25793.49, 0.000, 0.000, 0.000, 14:54:13.371
29, 28632.92, -28067.58, 40868.35, 12947.74, 4063.01, 43497.70, -187500.02, -25914.57, 0.000, 0.000, 0.000, 14:54:13.375
30, 28643.49, -28100.25, 40861.65, 12936.29, 4056.62, 43248.97, -187500.02, -26047.13, 0.000, 0.000, 0.000, 14:54:13.381
31, 28639.29, -28091.74, 40866.83, 12941.10, 4060.17, 43389.03, -187500.02, -26125.97, 0.000, 0.000, 0.000, 14:54:13.384
32, 28647.78, -28053.18, 40883.06, 12959.72, 4080.13, 43660.22, -187500.02, -26174.29, 0.000, 0.000, 0.000, 14:54:13.388
33, 28653.95, -28055.53, 40880.24, 12958.71, 4080.47, 43559.59, -187500.02, -26294.41, 0.000, 0.000, 0.000, 14:54:13.391
34, 28654.47, -28090.58, 40867.10, 12947.49, 4071.01, 43283.35, -187500.02, -26441.60, 0.000, 0.000, 0.000, 14:54:13.396
35, 28652.21, -28087.07, 40870.30, 12955.23, 4077.41, 43348.59, -187500.02, -26531.59, 0.000, 0.000, 0.000, 14:54:13.400
36, 28656.77, -28053.03, 40876.55, 12965.42, 4089.09, 43626.82, -187500.02, -26614.76, 0.000, 0.000, 0.000, 14:54:13.404
37, 28663.16, -28048.85, 40878.55, 12964.30, 4090.35, 43598.86, -187500.02, -26729.24, 0.018, -0.012, 1.046, 14:54:13.409
38, 28659.61, -28085.28, 40867.17, 12947.76, 4074.95, 43317.41, -187500.02, -26864.94, 0.000, 0.000, 0.000, 14:54:13.412
39, 28658.22, -28093.88, 40862.21, 12944.10, 4071.50, 43291.39, -187500.02, -26990.18, 0.000, 0.000, 0.000, 14:54:13.416
40, 28659.03, -28063.93, 40867.30, 12955.38, 4083.19, 43592.52, -187500.02, -27059.67, 0.000, 0.000, 0.000, 14:54:13.419
41, 28659.32, -28054.10, 40867.10, 12956.39, 4088.22, 43630.65, -187500.02, -27154.13, 0.000, 0.000, 0.000, 14:54:13.424
42, 28656.08, -28080.54, 40856.21, 12941.50, 4079.62, 43364.46, -187500.02, -27291.21, 0.000, 0.000, 0.000, 14:54:13.428
43, 28652.50, -28098.85, 40851.41, 12939.89, 4072.11, 43267.59, -187500.02, -27395.53, 0.000, 0.000, 0.000, 14:54:13.432
44, 28652.68, -28072.49, 40859.97, 12955.92, 4081.27, 43541.49, -187500.02, -27477.18, 0.000, 0.000, 0.000, 14:54:13.437
45, 28658.98, -28049.70, 40870.48, 12963.54, 4090.48, 43655.73, -187500.02, -27562.94, 0.000, 0.000, 0.000, 14:54:13.439
46, 28654.20, -28076.18, 40863.66, 12948.68, 4078.14, 43415.00, -187500.02, -27683.66, 0.000, 0.000, 0.000, 14:54:13.443
47, 28653.10, -28102.51, 40856.93, 12939.60, 4067.97, 43249.13, -187500.02, -27791.24, 0.020, -0.018, 1.040, 14:54:13.448
48, 28658.76, -28077.23, 40863.64, 12949.28, 4076.71, 43487.80, -187500.02, -27867.89, 0.000, 0.000, 0.000, 14:54:13.452
49, 28660.43, -28051.08, 40873.94, 12957.02, 4086.82, 43662.52, -187500.02, -27952.29, 0.000, 0.000, 0.000, 14:54:13.456
50, 28658.91, -28068.09, 40870.59, 12947.11, 4080.85, 43466.74, -187500.02, -28069.54, 0.000, 0.000, 0.000, 14:54:13.460
51, 28654.67, -28099.25, 40860.20, 12935.49, 4069.60, 43246.69, -187500.02, -28198.83, 0.000, 0.000, 0.000, 14:54:13.464
52, 28651.81, -28089.01, 40864.20, 12941.06, 4072.15, 43427.67, -187500.02, -28290.36, 0.000, 0.000, 0.000, 14:54:13.468
53, 28660.01, -28055.62, 40875.41, 12950.89, 4085.92, 43657.98, -187500.02, -28371.27, 0.000, 0.000, 0.000, 14:54:13.471
54, 28657.15, -28068.67, 40867.17, 12941.39, 4080.18, 43511.13, -187500.02, -28486.38, 0.000, 0.000, 0.000, 14:54:13.476
55, 28654.00, -28102.49, 40857.67, 12929.84, 4070.16, 43254.00, -187500.02, -28622.32, 0.000, 0.000, 0.000, 14:54:13.480
56, 28656.48, -28095.56, 40861.82, 12933.90, 4071.97, 43375.88, -187500.02, -28716.38, 0.000, 0.000, 0.000, 14:54:13.484
57, 28661.35, -28063.75, 40867.61, 12943.76, 4083.62, 43640.15, -187500.02, -28805.90, 0.016, -0.016, 1.034, 14:54:13.488
58, 28662.78, -28065.63, 40862.12, 12939.71, 4083.82, 43562.54, -187500.02, -28910.19, 0.000, 0.000, 0.000, 14:54:13.493
59, 28660.01, -28093.71, 40850.20, 12927.62, 4074.34, 43292.22, -187500.02, -29025.08, 0.000, 0.000, 0.000, 14:54:13.496
60, 28654.73, -28096.54, 40847.27, 12924.11, 4070.34, 43324.00, -187500.02, -29132.97, 0.000, 0.000, 0.000, 14:54:13.499
61, 28654.51, -28066.93, 40858.32, 12936.00, 4080.74, 43612.05, -187500.02, -29210.53, 0.000, 0.000, 0.000, 14:54:13.504
62, 28659.00, -28057.00, 40860.73, 12940.45, 4086.08, 43603.13, -187500.02, -29305.57, 0.000, 0.000, 0.000, 14:54:13.508
63, 28656.79, -28084.61, 40852.08, 12931.58, 4078.97, 43332.77, -187500.02, -29425.89, 0.000, 0.000, 0.000, 14:54:13.512
64, 28650.22, -28092.54, 40851.19, 12929.95, 4074.79, 43299.69, -187500.02, -29539.82, 0.000, 0.000, 0.000, 14:54:13.516
65, 28651.49, -28061.18, 40860.35, 12942.29, 4084.74, 43588.76, -187500.02, -29620.62, 0.000, 0.000, 0.000, 14:54:13.520
66, 28663.61, -28044.22, 40865.07, 12950.87, 4092.76, 43649.85, -187500.02, -29718.14, 0.000, 0.000, 0.000, 14:54:13.524
67, 28660.90, -28073.14, 40856.71, 12935.54, 4078.59, 43385.94, -187500.02, -29841.81, 0.014, -0.022, 1.040, 14:54:13.526
68, 28655.14, -28096.37, 40851.12, 12929.57, 4068.46, 43275.41, -187500.02, -29965.26, 0.000, 0.000, 0.000, 14:54:13.532
69, 28653.73, -28066.19, 40859.08, 12943.69, 4078.37, 43547.14, -187500.02, -30042.13, 0.000, 0.000, 0.000, 14:54:13.536
70, 28657.01, -28041.36, 40865.29, 12951.18, 4087.37, 43673.54, -187500.02, -30128.54, 0.000, 0.000, 0.000, 14:54:13.540
71, 28654.73, -28065.52, 40855.43, 12938.73, 4075.37, 43442.56, -187500.02, -30236.03, 0.000, 0.000, 0.000, 14:54:13.543
72, 28651.65, -28089.59, 40846.96, 12931.80, 4065.92, 43271.32, -187500.02, -30341.87, 0.000, 0.000, 0.000, 14:54:13.548
73, 28652.90, -28067.78, 40851.23, 12942.58, 4071.84, 43500.20, -187500.02, -30418.87, 0.000, 0.000, 0.000, 14:54:13.552
74, 28652.95, -28043.19, 40857.00, 12949.95, 4078.03, 43688.61, -187500.02, -30508.48, 0.000, 0.000, 0.000, 14:54:13.556
75, 28652.16, -28058.50, 40854.81, 12944.16, 4074.54, 43509.41, -187500.02, -30630.90, 0.000, 0.000, 0.000, 14:54:13.560
76, 28650.09, -28085.57, 40846.67, 12937.05, 4067.44, 43295.42, -187500.02, -30762.46, 0.000, 0.000, 0.000, 14:54:13.564
77, 28650.76, -28068.27, 40854.14, 12946.35, 4072.64, 43488.78, -187500.02, -30836.98, 0.014, -0.016, 1.044, 14:54:13.567
78, 28655.34, -28035.55, 40866.39, 12961.91, 4087.15, 43734.96, -187500.02, -30932.44, 0.000, 0.000, 0.000, 14:54:13.571
79, 28656.32, -28043.82, 40865.31, 12954.58, 4086.37, 43624.75, -187500.02, -31029.21, 0.000, 0.000, 0.000, 14:54:13.576
80, 28656.30, -28076.25, 40858.70, 12942.20, 4073.18, 43371.46, -187500.02, -31141.50, 0.000, 0.000, 0.000, 14:54:13.579
81, 28651.34, -28070.04, 40858.05, 12948.57, 4072.09, 43476.33, -187500.02, -31241.19, 0.000, 0.000, 0.000, 14:54:13.584
82, 28651.22, -28035.75, 40864.87, 12960.37, 4084.40, 43754.97, -187500.02, -31322.77, 0.000, 0.000, 0.000, 14:54:13.588
83, 28647.60, -28035.21, 40862.65, 12955.12, 4085.25, 43683.46, -187500.02, -31424.25, 0.000, 0.000, 0.000, 14:54:13.592
84, 28645.06, -28070.93, 40853.15, 12936.92, 4071.17, 43405.66, -187500.02, -31537.48, 0.000, 0.000, 0.000, 14:54:13.595
85, 28651.05, -28074.88, 40854.36, 12937.14, 4071.79, 43422.80, -187500.02, -31639.65, 0.000, 0.000, 0.000, 14:54:13.599
86, 28654.47, -28040.55, 40865.87, 12951.83, 4083.42, 43704.57, -187500.02, -31738.22, 0.000, 0.000, 0.000, 14:54:13.604
87, 28655.47, -28034.52, 40868.58, 12950.44, 4082.10, 43703.05, -187500.02, -31834.43, 0.020, -0.016, 1.042, 14:54:13.608
88, 28655.54, -28063.33, 40866.50, 12940.12, 4072.09, 43422.66, -187500.02, -31960.47, 0.000, 0.000, 0.000, 14:54:13.612
89, 28648.63, -28078.69, 40865.49, 12933.46, 4064.02, 43374.00, -187500.02, -32058.19, 0.000, 0.000, 0.000, 14:54:13.616
90, 28645.17, -28051.51, 40874.61, 12944.83, 4071.12, 43647.48, -187500.02, -32141.83, 0.000, 0.000, 0.000, 14:54:13.619
91, 28648.74, -28034.36, 40877.41, 12950.13, 4080.74, 43711.50, -187500.02, -32249.43, 0.000, 0.000, 0.000, 14:54:13.623
92, 28646.24, -28063.82, 40864.04, 12935.83, 4070.61, 43443.09, -187500.02, -32383.14, 0.000, 0.000, 0.000, 14:54:13.627
93, 28639.83, -28084.90, 40860.26, 12926.77, 4061.24, 43318.93, -187500.02, -32497.92, 0.000, 0.000, 0.000, 14:54:13.632
94, 28639.15, -28058.39, 40870.30, 12936.14, 4070.10, 43581.54, -187500.02, -32570.45, 0.000, 0.000, 0.000, 14:54:13.636
95, 28642.35, -28036.06, 40873.92, 12941.24, 4076.27, 43715.23, -187500.02, -32647.65, 0.000, 0.000, 0.000, 14:54:13.639
96, 28644.41, -28056.31, 40866.99, 12934.75, 4070.39, 43483.77, -187500.02, -32752.79, 0.000, 0.000, 0.000, 14:54:13.644
97, 28644.74, -28083.16, 40862.41, 12930.44, 4065.07, 43296.54, -187500.02, -32874.88, 0.018, -0.014, 1.042, 14:54:13.647
98, 28645.53, -28063.78, 40869.49, 12941.35, 4073.92, 43511.63, -187500.02, -32955.88, 0.000, 0.000, 0.000, 14:54:13.651
99, 28652.92, -28034.92, 40875.59, 12947.74, 4085.52, 43693.34, -187500.02, -33068.93, 0.000, 0.000, 0.000, 14:54:13.656
100, 28652.05, -28052.58, 40863.93, 12938.69, 4077.94, 43517.79, -187500.02, -33172.18, 0.000, 0.000, 0.000, 14:54:13.659
101, 28645.97, -28085.73, 40852.15, 12929.79, 4067.32, 43279.28, -187500.02, -33286.71, 0.000, 0.000, 0.000, 14:54:13.664
102, 28635.51, -28077.79, 40853.62, 12931.74, 4065.60, 43432.54, -187500.02, -33356.65, 0.000, 0.000, 0.000, 14:54:13.669
103, 28644.34, -28047.77, 40861.82, 12942.84, 4075.04, 43660.15, -187500.02, -33437.79, 0.000, 0.000, 0.000, 14:54:13.673
104, 28650.31, -28052.91, 40855.14, 12944.03, 4078.46, 43529.57, -187500.02, -33554.44, 0.000, 0.000, 0.000, 14:54:13.675
105, 28643.89, -28088.18, 40843.36, 12928.92, 4066.70, 43260.70, -187500.02, -33687.25, 0.000, 0.000, 0.000, 14:54:13.680
106, 28643.40, -28085.75, 40849.18, 12929.68, 4066.94, 43341.46, -187500.02, -33797.31, 0.000, 0.000, 0.000, 14:54:13.684
107, 28646.42, -28051.53, 40862.86, 12946.76, 4079.42, 43622.60, -187500.02, -33873.49, 0.000, 0.000, 0.000, 14:54:13.688
108, 28650.46, -28050.70, 40857.47, 12944.77, 4080.49, 43568.42, -187500.02, -33959.05, 0.020, -0.020, 1.046, 14:54:13.692
109, 28645.79, -28085.55, 40845.06, 12927.56, 4064.73, 43287.15, -187500.02, -34059.50, 0.000, 0.000, 0.000, 14:54:13.696
110, 28641.01, -28094.91, 40845.49, 12924.43, 4058.16, 43293.56, -187500.02, -34148.79, 0.000, 0.000, 0.000, 14:54:13.700
111, 28645.32, -28062.05, 40859.95, 12938.06, 4071.19, 43574.57, -187500.02, -34225.75, 0.000, 0.000, 0.000, 14:54:13.704
112, 28645.73, -28053.81, 40859.57, 12940.45, 4077.18, 43578.75, -187500.02, -34331.86, 0.000, 0.000, 0.000, 14:54:13.708
113, 28642.24, -28085.46, 40844.77, 12927.82, 4064.98, 43305.39, -187500.02, -34452.55, 0.000, 0.000, 0.000, 14:54:13.711
114, 28636.90, -28100.39, 40838.45, 12922.39, 4059.97, 43246.98, -187500.02, -34550.63, 0.000, 0.000, 0.000, 14:54:13.715
115, 28641.14, -28069.83, 40849.62, 12937.79, 4071.91, 43522.22, -187500.02, -34639.28, 0.000, 0.000, 0.000, 14:54:13.720
116, 28644.45, -28054.88, 40853.06, 12941.79, 4077.58, 43604.68, -187500.02, -34741.83, 0.000, 0.000, 0.000, 14:54:13.724
117, 28641.95, -28083.18, 40843.52, 12928.36, 4066.63, 43348.28, -187500.02, -34878.51, 0.000, 0.000, 0.000, 14:54:13.727
118, 28643.94, -28104.61, 40840.75, 12923.96, 4059.48, 43216.96, -187500.02, -35010.90, 0.014, -0.018, 1.040, 14:54:13.731
119, 28643.71, -28078.95, 40848.80, 12938.62, 4065.87, 43484.04, -187500.02, -35080.21, 0.000, 0.000, 0.000, 14:54:13.735
120, 28646.69, -28055.44, 40857.49, 12949.24, 4074.03, 43630.40, -187500.02, -35157.15, 0.000, 0.000, 0.000, 14:54:13.739
121, 28650.76, -28074.04, 40858.27, 12941.70, 4068.87, 43409.07, -187500.02, -35287.79, 0.000, 0.000, 0.000, 14:54:13.743
122, 28638.04, -28103.90, 40848.64, 12925.95, 4054.92, 43215.84, -187500.02, -35411.46, 0.000, 0.000, 0.000, 14:54:13.748
123, 28640.65, -28085.61, 40848.75, 12931.94, 4063.95, 43425.71, -187500.02, -35498.35, 0.000, 0.000, 0.000, 14:54:13.752
124, 28651.70, -28053.29, 40851.86, 12943.04, 4078.68, 43635.05, -187500.02, -35574.92, 0.000, 0.000, 0.000, 14:54:13.756
125, 28647.96, -28066.41, 40846.09, 12937.41, 4075.53, 43455.16, -187500.02, -35704.92, 0.000, 0.000, 0.000, 14:54:13.759
126, 28639.27, -28097.53, 40836.77, 12924.65, 4062.92, 43217.16, -187500.02, -35834.07, 0.000, 0.000, 0.000, 14:54:13.763
127, 28637.52, -28087.45, 40838.89, 12932.12, 4064.87, 43360.68, -187500.02, -35928.26, 0.000, 0.000, 0.000, 14:54:13.767
128, 28642.55, -28057.05, 40850.74, 12943.72, 4075.30, 43610.22, -187500.02, -36010.04, 0.018, -0.016, 1.038, 14:54:13.771
129, 28642.78, -28068.07, 40849.44, 12934.93, 4070.54, 43497.23, -187500.02, -36096.70, 0.000, 0.000, 0.000, 14:54:13.776
130, 28640.45, -28101.10, 40842.47, 12925.32, 4060.66, 43219.96, -187500.02, -36221.76, 0.000, 0.000, 0.000, 14:54:13.780
131, 28637.08, -28101.01, 40839.12, 12926.39, 4058.88, 43284.42, -187500.02, -36338.55, 0.000, 0.000, 0.000, 14:54:13.783
132, 28637.79, -28069.37, 40845.93, 12934.48, 4068.53, 43558.81, -187500.02, -36406.43, 0.000, 0.000, 0.000, 14:54:13.787
133, 28641.59, -28067.58, 40846.67, 12934.33, 4070.12, 43499.46, -187500.02, -36517.81, 0.000, 0.000, 0.000, 14:54:13.791
134, 28640.07, -28106.33, 40833.95, 12920.09, 4053.51, 43218.26, -187500.02, -36621.41, 0.000, 0.000, 0.000, 14:54:13.796
135, 28640.43, -28114.13, 40831.16, 12921.77, 4052.66, 43219.27, -187500.02, -36719.27, 0.000, 0.000, 0.000, 14:54:13.800
136, 28634.21, -28074.08, 40841.29, 12941.48, 4069.78, 43528.97, -187500.02, -36798.77, 0.000, 0.000, 0.000, 14:54:13.803
137, 28636.96, -28066.01, 40840.68, 12942.31, 4071.33, 43558.61, -187500.02, -36907.63, 0.000, 0.000, 0.000, 14:54:13.808
138, 28633.61, -28099.52, 40831.56, 12926.24, 4055.79, 43302.57, -187500.02, -37013.88, 0.016, -0.018, 1.034, 14:54:13.811
139, 28633.32, -28113.67, 40832.88, 12924.20, 4051.10, 43234.96, -187500.02, -37125.84, 0.000, 0.000, 0.000, 14:54:13.816
140, 28635.33, -28081.43, 40842.09, 12935.83, 4061.69, 43526.51, -187500.02, -37195.85, 0.000, 0.000, 0.000, 14:54:13.820
141, 28645.64, -28058.10, 40848.23, 12942.46, 4075.26, 43627.56, -187500.02, -37267.26, 0.000, 0.000, 0.000, 14:54:13.824
142, 28647.74, -28082.26, 40839.45, 12929.66, 4066.48, 43369.56, -187500.02, -37398.73, 0.000, 0.000, 0.000, 14:54:13.828
143, 28639.02, -28105.69, 40834.04, 12918.66, 4057.47, 43225.25, -187500.02, -37518.43, 0.000, 0.000, 0.000, 14:54:13.832
144, 28640.70, -28082.73, 40842.09, 12927.47, 4065.96, 43475.62, -187500.02, -37592.88, 0.000, 0.000, 0.000, 14:54:13.837
145, 28647.40, -28059.98, 40852.30, 12933.39, 4075.68, 43627.43, -187500.02, -37686.09, 0.000, 0.000, 0.000, 14:54:13.839
146, 28644.14, -28084.21, 40847.21, 12922.17, 4066.94, 43411.63, -187500.02, -37813.99, 0.000, 0.000, 0.000, 14:54:13.844
147, 28641.03, -28111.47, 40839.14, 12917.63, 4059.03, 43219.87, -187500.02, -37931.27, 0.000, 0.000, 0.000, 14:54:13.847
148, 28638.31, -28092.23, 40847.66, 12927.22, 4062.97, 43424.10, -187500.02, -38002.32, 0.018, -0.016, 1.030, 14:54:13.851
149, 28638.57, -28065.79, 40854.27, 12934.48, 4068.96, 43627.27, -187500.02, -38107.40, 0.000, 0.000, 0.000, 14:54:13.856
150, 28638.91, -28077.30, 40846.49, 12926.21, 4064.40, 43476.18, -187500.02, -38211.33, 0.000, 0.000, 0.000, 14:54:13.860
151, 28638.69, -28107.94, 40839.39, 12917.21, 4056.30, 43233.41, -187500.02, -38317.32, 0.000, 0.000, 0.000, 14:54:13.865
152, 28637.59, -28097.17, 40842.96, 12924.31, 4062.23, 43368.39, -187500.02, -38421.91, 0.000, 0.000, 0.000, 14:54:13.867
153, 28637.63, -28068.02, 40844.86, 12933.64, 4069.11, 43622.07, -187500.02, -38503.18, 0.000, 0.000, 0.000, 14:54:13.871
154, 28641.21, -28071.02, 40841.38, 12934.42, 4068.51, 43520.14, -187500.02, -38624.84, 0.000, 0.000, 0.000, 14:54:13.875
155, 28637.08, -28103.83, 40832.61, 12922.33, 4055.86, 43260.41, -187500.02, -38741.20, 0.000, 0.000, 0.000, 14:54:13.879
156, 28636.07, -28101.33, 40838.09, 12926.39, 4055.90, 43328.03, -187500.02, -38822.16, 0.000, 0.000, 0.000, 14:54:13.883
157, 28638.19, -28064.18, 40850.63, 12942.69, 4070.34, 43614.20, -187500.02, -38890.34, 0.000, 0.000, 0.000, 14:54:13.887
158, 28642.93, -28059.28, 40850.41, 12937.46, 4074.57, 43574.41, -187500.02, -38999.05, 0.026, -0.020, 1.038, 14:54:13.892
159, 28643.11, -28092.81, 40839.43, 12918.15, 4062.85, 43292.87, -187500.02, -39129.36, 0.000, 0.000, 0.000, 14:54:13.896
160, 28639.27, -28104.12, 40836.05, 12915.44, 4058.65, 43282.54, -187500.02, -39228.67, 0.000, 0.000, 0.000, 14:54:13.900
161, 28643.67, -28070.79, 40847.79, 12932.47, 4072.31, 43569.96, -187500.02, -39308.36, 0.000, 0.000, 0.000, 14:54:13.903
162, 28648.92, -28056.60, 40849.38, 12939.07, 4079.84, 43610.46, -187500.02, -39396.34, 0.000, 0.000, 0.000, 14:54:13.907
163, 28639.71, -28088.56, 40837.33, 12927.53, 4066.34, 43331.14, -187500.02, -39530.69, 0.000, 0.000, 0.000, 14:54:13.911
164, 28635.45, -28106.33, 40830.85, 12921.16, 4054.25, 43246.13, -187500.02, -39634.47, 0.000, 0.000, 0.000, 14:54:13.915
165, 28634.28, -28076.58, 40839.16, 12931.71, 4061.11, 43526.80, -187500.02, -39691.31, 0.000, 0.000, 0.000, 14:54:13.920
166, 28635.06, -28059.62, 40840.48, 12935.47, 4064.69, 43620.75, -187500.02, -39778.21, 0.000, 0.000, 0.000, 14:54:13.923
167, 28637.70, -28082.87, 40836.34, 12930.77, 4058.09, 43371.05, -187500.02, -39907.90, 0.000, 0.000, 0.000, 14:54:13.927
168, 28640.36, -28104.37, 40841.15, 12932.54, 4053.44, 43220.25, -187500.02, -40040.09, 0.024, -0.018, 1.042, 14:54:13.931
169, 28640.36, -28082.64, 40847.79, 12940.54, 4059.79, 43464.44, -187500.02, -40131.86, 0.000, 0.000, 0.000, 14:54:13.936
170, 28639.49, -28056.85, 40853.96, 12946.60, 4065.94, 43635.68, -187500.02, -40213.00, 0.000, 0.000, 0.000, 14:54:13.939
171, 28639.15, -28075.42, 40844.66, 12937.12, 4060.04, 43434.27, -187500.02, -40322.86, 0.000, 0.000, 0.000, 14:54:13.946
172, 28632.65, -28107.03, 40835.14, 12925.97, 4048.93, 43229.57, -187500.02, -40433.14, 0.000, 0.000, 0.000, 14:54:13.948
173, 28630.64, -28089.57, 40839.74, 12934.31, 4052.95, 43424.77, -187500.02, -40502.39, 0.000, 0.000, 0.000, 14:54:13.952
174, 28636.50, -28061.16, 40847.88, 12944.21, 4062.79, 43637.31, -187500.02, -40585.69, 0.000, 0.000, 0.000, 14:54:13.955
175, 28637.26, -28073.88, 40847.32, 12938.20, 4058.36, 43484.73, -187500.02, -40702.64, 0.000, 0.000, 0.000, 14:54:13.960
176, 28629.25, -28107.07, 40840.39, 12925.95, 4043.50, 43238.26, -187500.02, -40812.94, 0.000, 0.000, 0.000, 14:54:13.964
177, 28625.19, -28102.56, 40841.51, 12927.24, 4039.83, 43356.66, -187500.02, -40914.13, 0.000, 0.000, 0.000, 14:54:13.967
178, 28627.58, -28071.38, 40854.54, 12936.21, 4049.89, 43622.73, -187500.02, -40978.77, 0.020, -0.016, 1.044, 14:54:13.971
179, 28635.60, -28072.85, 40856.89, 12932.92, 4055.81, 43524.52, -187500.02, -41108.03, 0.000, 0.000, 0.000, 14:54:13.977
180, 28633.32, -28103.88, 40845.31, 12919.87, 4045.87, 43264.93, -187500.02, -41214.29, 0.000, 0.000, 0.000, 14:54:13.980
181, 28631.04, -28102.22, 40851.75, 12927.42, 4049.00, 43320.45, -187500.02, -41300.81, 0.000, 0.000, 0.000, 14:54:13.984
182, 28631.22, -28068.07, 40865.87, 12943.67, 4061.31, 43603.36, -187500.02, -41388.28, 0.000, 0.000, 0.000, 14:54:13.987
183, 28629.72, -28063.46, 40864.08, 12939.65, 4059.64, 43581.99, -187500.02, -41484.61, 0.000, 0.000, 0.000, 14:54:13.991
184, 28628.16, -28097.51, 40854.88, 12921.61, 4041.84, 43306.26, -187500.02, -41591.54, 0.000, 0.000, 0.000, 14:54:13.995
185, 28628.31, -28107.74, 40850.11, 12918.44, 4038.36, 43273.16, -187500.02, -41702.43, 0.000, 0.000, 0.000, 14:54:13.999
186, 28629.95, -28075.56, 40857.54, 12935.22, 4054.74, 43560.60, -187500.02, -41799.97, 0.000, 0.000, 0.000, 14:54:14.004
187, 28628.61, -28064.22, 40857.89, 12937.32, 4058.20, 43603.69, -187500.02, -41905.32, 0.000, 0.000, 0.000, 14:54:14.008
188, 28627.67, -28086.02, 40850.74, 12929.77, 4053.71, 43345.55, -187500.02, -42018.95, 0.018, -0.016, 1.036, 14:54:14.010
189, 28630.55, -28099.99, 40849.42, 12926.06, 4051.77, 43244.32, -187500.02, -42138.47, 0.000, 0.000, 0.000, 14:54:14.015
190, 28632.49, -28071.22, 40860.80, 12937.82, 4064.24, 43516.23, -187500.02, -42217.79, 0.000, 0.000, 0.000, 14:54:14.020
191, 28636.34, -28049.27, 40863.14, 12943.74, 4077.99, 43637.60, -187500.02, -42292.67, 0.000, 0.000, 0.000, 14:54:14.024
192, 28633.61, -28073.90, 40854.85, 12932.29, 4068.89, 43403.11, -187500.02, -42392.56, 0.000, 0.000, 0.000, 14:54:14.027
193, 28630.13, -28096.19, 40849.73, 12928.87, 4059.61, 43238.35, -187500.02, -42504.39, 0.000, 0.000, 0.000, 14:54:14.030
194, 28629.03, -28073.81, 40857.96, 12940.97, 4067.37, 43470.88, -187500.02, -42584.52, 0.000, 0.000, 0.000, 14:54:14.035
195, 28631.20, -28047.17, 40861.76, 12951.25, 4078.97, 43649.18, -187500.02, -42667.40, 0.000, 0.000, 0.000, 14:54:14.038
196, 28632.43, -28066.44, 40853.91, 12942.73, 4074.43, 43450.25, -187500.02, -42790.89, 0.000, 0.000, 0.000, 14:54:14.043
197, 28630.88, -28101.66, 40848.95, 12930.01, 4061.22, 43233.88, -187500.02, -42917.14, 0.000, 0.000, 0.000, 14:54:14.047
198, 28629.59, -28086.38, 40855.63, 12938.06, 4065.25, 43414.24, -187500.02, -43002.72, 0.016, -0.022, 1.040, 14:54:14.052
199, 28634.35, -28057.12, 40859.30, 12946.20, 4075.15, 43643.63, -187500.02, -43080.24, 0.000, 0.000, 0.000, 14:54:14.058
200, 28633.81, -28068.65, 40854.27, 12940.23, 4073.31, 43496.43, -187500.02, -43201.03, 0.000, 0.000, 0.000, 14:54:14.060
201, 28626.15, -28101.55, 40843.39, 12926.73, 4060.66, 43244.39, -187500.02, -43324.36, 0.000, 0.000, 0.000, 14:54:14.064
202, 28620.76, -28092.88, 40844.28, 12930.80, 4062.12, 43354.02, -187500.02, -43427.25, 0.000, 0.000, 0.000, 14:54:14.067
203, 28628.29, -28060.98, 40852.13, 12939.49, 4068.96, 43628.32, -187500.02, -43496.34, 0.000, 0.000, 0.000, 14:54:14.070
204, 28633.72, -28063.78, 40851.66, 12936.92, 4070.90, 43549.89, -187500.02, -43584.34, 0.000, 0.000, 0.000, 14:54:14.075
205, 28623.96, -28098.47, 40842.18, 12926.08, 4061.16, 43279.86, -187500.02, -43684.92, 0.000, 0.000, 0.000, 14:54:14.080
206, 28621.30, -28100.46, 40844.75, 12931.45, 4062.56, 43315.33, -187500.02, -43779.15, 0.000, 0.000, 0.000, 14:54:14.084
207, 28627.53, -28062.32, 40856.66, 12947.49, 4076.31, 43607.00, -187500.02, -43846.45, 0.000, 0.000, 0.000, 14:54:14.086
208, 28634.19, -28049.72, 40860.08, 12947.94, 4084.04, 43592.79, -187500.02, -43945.16, 0.014, -0.018, 1.044, 14:54:14.090
209, 28635.51, -28078.28, 40856.84, 12940.50, 4077.43, 43313.93, -187500.02, -44080.30, 0.000, 0.000, 0.000, 14:54:14.095
210, 28633.77, -28091.69, 40853.24, 12938.26, 4071.41, 43282.74, -187500.02, -44189.49, 0.000, 0.000, 0.000, 14:54:14.099
211, 28634.57, -28062.66, 40861.49, 12951.03, 4079.82, 43572.82, -187500.02, -44244.54, 0.000, 0.000, 0.000, 14:54:14.103
212, 28640.23, -28048.33, 40866.63, 12954.65, 4086.66, 43630.18, -187500.02, -44331.75, 0.000, 0.000, 0.000, 14:54:14.107
213, 28640.12, -28075.13, 40858.16, 12942.96, 4080.27, 43365.33, -187500.02, -44456.93, 0.000, 0.000, 0.000, 14:54:14.112
214, 28634.24, -28094.22, 40853.20, 12934.42, 4071.55, 43250.60, -187500.02, -44586.23, 0.000, 0.000, 0.000, 14:54:14.114
215, 28630.28, -28068.00, 40854.05, 12941.41, 4075.93, 43526.18, -187500.02, -44641.59, 0.000, 0.000, 0.000, 14:54:14.120
216, 28637.21, -28045.76, 40859.34, 12950.22, 4085.68, 43641.98, -187500.02, -44746.20, 0.000, 0.000, 0.000, 14:54:14.123
217, 28639.09, -28070.50, 40853.94, 12937.68, 4075.33, 43422.71, -187500.02, -44850.99, 0.000, 0.000, 0.000, 14:54:14.127
218, 28635.45, -28095.40, 40846.11, 12927.00, 4067.55, 43246.85, -187500.02, -44955.97, 0.016, -0.018, 1.040, 14:54:14.132
219, 28630.86, -28078.10, 40853.46, 12934.42, 4069.67, 43467.41, -187500.02, -45043.10, 0.000, 0.000, 0.000, 14:54:14.135
220, 28630.46, -28053.14, 40858.79, 12940.34, 4075.01, 43643.10, -187500.02, -45139.82, 0.000, 0.000, 0.000, 14:54:14.139
221, 28628.49, -28063.15, 40852.73, 12936.25, 4075.37, 43465.20, -187500.02, -45238.45, 0.000, 0.000, 0.000, 14:54:14.143
222, 28624.11, -28093.59, 40844.75, 12929.95, 4066.56, 43243.20, -187500.02, -45339.06, 0.000, 0.000, 0.000, 14:54:14.147
223, 28621.81, -28084.47, 40848.04, 12933.19, 4067.79, 43409.25, -187500.02, -45433.41, 0.000, 0.000, 0.000, 14:54:14.150
224, 28625.90, -28053.92, 40859.64, 12947.00, 4079.53, 43642.45, -187500.02, -45519.93, 0.000, 0.000, 0.000, 14:54:14.155
225, 28636.18, -28057.74, 40862.52, 12949.84, 4080.85, 43518.15, -187500.02, -45628.29, 0.000, 0.000, 0.000, 14:54:14.159
226, 28635.73, -28088.32, 40855.57, 12938.37, 4071.10, 43266.36, -187500.02, -45733.52, 0.000, 0.000, 0.000, 14:54:14.164
227, 28632.88, -28088.86, 40857.67, 12936.70, 4069.34, 43357.93, -187500.02, -45831.76, 0.000, 0.000, 0.000, 14:54:14.168
228, 28634.06, -28055.95, 40866.43, 12945.26, 4079.89, 43622.76, -187500.02, -45927.54, 0.016, -0.018, 1.040, 14:54:14.170
229, 28633.66, -28057.41, 40864.42, 12940.56, 4078.97, 43554.96, -187500.02, -46028.10, 0.000, 0.000, 0.000, 14:54:14.174
230, 28631.85, -28092.50, 40858.50, 12928.18, 4068.82, 43279.48, -187500.02, -46152.08, 0.000, 0.000, 0.000, 14:54:14.181
231, 28627.76, -28094.71, 40861.58, 12927.56, 4066.25, 43309.66, -187500.02, -46237.09, 0.000, 0.000, 0.000, 14:54:14.183
232, 28627.62, -28064.29, 40869.98, 12939.45, 4075.13, 43595.42, -187500.02, -46306.04, 0.000, 0.000, 0.000, 14:54:14.187
233, 28630.06, -28055.21, 40864.08, 12940.18, 4079.51, 43594.24, -187500.02, -46401.86, 0.000, 0.000, 0.000, 14:54:14.192
234, 28628.22, -28087.89, 40854.94, 12925.03, 4064.73, 43309.99, -187500.02, -46539.17, 0.000, 0.000, 0.000, 14:54:14.196
235, 28625.74, -28100.88, 40853.89, 12921.65, 4058.61, 43264.46, -187500.02, -46646.37, 0.000, 0.000, 0.000, 14:54:14.198
236, 28625.16, -28069.05, 40863.55, 12938.82, 4070.79, 43553.80, -187500.02, -46705.85, 0.000, 0.000, 0.000, 14:54:14.202
237, 28632.99, -28053.54, 40869.79, 12947.67, 4081.00, 43626.11, -187500.02, -46790.71, 0.000, 0.000, 0.000, 14:54:14.207
238, 28634.93, -28079.38, 40862.63, 12935.80, 4075.80, 43373.94, -187500.02, -46900.11, 0.016, -0.018, 1.038, 14:54:14.211
239, 28630.01, -28101.06, 40855.57, 12926.82, 4068.49, 43248.63, -187500.02, -47021.61, 0.000, 0.000, 0.000, 14:54:14.215
240, 28629.88, -28077.12, 40861.76, 12934.42, 4076.24, 43508.81, -187500.02, -47106.99, 0.000, 0.000, 0.000, 14:54:14.220
241, 28635.58, -28050.59, 40869.96, 12944.32, 4087.60, 43645.40, -187500.02, -47192.29, 0.000, 0.000, 0.000, 14:54:14.224
242, 28637.30, -28069.14, 40863.77, 12939.92, 4080.13, 43418.46, -187500.02, -47303.40, 0.000, 0.000, 0.000, 14:54:14.228
243, 28637.93, -28094.89, 40854.27, 12930.44, 4068.87, 43239.02, -187500.02, -47423.34, 0.000, 0.000, 0.000, 14:54:14.231
244, 28629.14, -28075.60, 40856.02, 12937.37, 4069.49, 43462.03, -187500.02, -47488.78, 0.000, 0.000, 0.000, 14:54:14.235
245, 28634.73, -28043.23, 40866.90, 12951.14, 4082.64, 43655.88, -187500.02, -47566.66, 0.000, 0.000, 0.000, 14:54:14.239
246, 28631.49, -28059.91, 40859.23, 12940.92, 4075.73, 43468.24, -187500.02, -47701.57, 0.000, 0.000, 0.000, 14:54:14.243
247, 28629.16, -28093.86, 40849.13, 12925.95, 4061.40, 43244.45, -187500.02, -47817.11, 0.000, 0.000, 0.000, 14:54:14.248
248, 28628.78, -28080.54, 40857.45, 12934.69, 4065.72, 43402.39, -187500.02, -47900.50, 0.018, -0.018, 1.044, 14:54:14.251
249, 28635.60, -28047.08, 40867.32, 12951.34, 4079.30, 43643.90, -187500.02, -47984.37, 0.000, 0.000, 0.000, 14:54:14.255
250, 28634.77, -28054.95, 40860.06, 12943.29, 4075.68, 43523.41, -187500.02, -48085.78, 0.000, 0.000, 0.000, 14:54:14.259
251, 28635.11, -28088.10, 40849.04, 12929.99, 4064.31, 43261.80, -187500.02, -48201.58, 0.000, 0.000, 0.000, 14:54:14.263
252, 28629.23, -28084.88, 40848.57, 12933.46, 4066.54, 43352.61, -187500.02, -48287.28, 0.000, 0.000, 0.000, 14:54:14.266
253, 28630.64, -28047.86, 40859.79, 12945.50, 4082.12, 43624.08, -187500.02, -48371.79, 0.000, 0.000, 0.000, 14:54:14.272
254, 28632.92, -28047.50, 40858.79, 12940.39, 4081.76, 43568.98, -187500.02, -48477.40, 0.000, 0.000, 0.000, 14:54:14.276
255, 28625.41, -28080.03, 40850.56, 12926.28, 4069.65, 43300.31, -187500.02, -48570.18, 0.000, 0.000, 0.000, 14:54:14.280
0, 28623.60, -28084.74, 40851.45, 12927.87, 4071.03, 43301.88, -187500.02, -48681.29, 0.000, 0.000, 0.000, 14:54:14.282
1, 28624.29, -28055.62, 40862.65, 12940.68, 4078.93, 43593.90, -187500.02, -48758.86, 0.000, 0.000, 0.000, 14:54:14.286
2, 28625.28, -28046.16, 40864.66, 12941.53, 4084.04, 43602.80, -187500.02, -48856.84, 0.022, -0.018, 1.046, 14:54:14.291
3, 28619.60, -28076.40, 40856.48, 12929.39, 4072.62, 43334.71, -187500.02, -48969.70, 0.000, 0.000, 0.000, 14:54:14.295
4, 28614.54, -28098.11, 40852.13, 12920.11, 4061.20, 43268.15, -187500.02, -49064.27, 0.000, 0.000, 0.000, 14:54:14.299
5, 28616.89, -28070.35, 40861.07, 12932.00, 4070.77, 43543.05, -187500.02, -49145.23, 0.000, 0.000, 0.000, 14:54:14.304
6, 28624.89, -28050.81, 40863.21, 12935.42, 4081.34, 43626.45, -187500.02, -49233.98, 0.000, 0.000, 0.000, 14:54:14.307
7, 28628.13, -28075.27, 40853.42, 12921.43, 4074.70, 43370.68, -187500.02, -49353.39, 0.000, 0.000, 0.000, 14:54:14.311
8, 28624.63, -28098.56, 40849.00, 12915.62, 4066.18, 43237.77, -187500.02, -49469.59, 0.000, 0.000, 0.000, 14:54:14.315
9, 28624.58, -28073.79, 40859.52, 12926.15, 4070.27, 43496.85, -187500.02, -49540.29, 0.000, 0.000, 0.000, 14:54:14.318
10, 28631.38, -28053.54, 40865.67, 12931.80, 4075.57, 43634.79, -187500.02, -49632.27, 0.000, 0.000, 0.000, 14:54:14.323
11, 28640.79, -28069.10, 40866.34, 12932.90, 4077.47, 43425.48, -187500.02, -49745.17, 0.000, 0.000, 0.000, 14:54:14.327
12, 28635.58, -28091.43, 40867.05, 12934.51, 4073.78, 43248.12, -187500.02, -49838.02, 0.000, 0.000, 0.000, 14:54:14.330
13, 28625.83, -28075.73, 40873.70, 12942.64, 4078.01, 43448.75, -187500.02, -49917.61, 0.022, -0.018, 1.054, 14:54:14.336
14, 28631.51, -28050.14, 40881.03, 12948.57, 4088.42, 43645.76, -187500.02, -50006.35, 0.000, 0.000, 0.000, 14:54:14.339
15, 28638.93, -28061.77, 40882.57, 12942.42, 4089.01, 43483.55, -187500.02, -50100.81, 0.000, 0.000, 0.000, 14:54:14.342
16, 28638.87, -28094.96, 40881.88, 12933.70, 4079.28, 43249.66, -187500.02, -50215.27, 0.000, 0.000, 0.000, 14:54:14.347
17, 28636.99, -28091.98, 40885.65, 12939.56, 4077.16, 43390.86, -187500.02, -50318.00, 0.000, 0.000, 0.000, 14:54:14.351
18, 28638.91, -28058.90, 40894.06, 12956.19, 4088.92, 43644.20, -187500.02, -50408.37, 0.000, 0.000, 0.000, 14:54:14.355
19, 28643.78, -28062.61, 40892.65, 12954.94, 4089.54, 43539.21, -187500.02, -50502.91, 0.000, 0.000, 0.000, 14:54:14.359
20, 28645.90, -28098.69, 40883.66, 12936.16, 4071.95, 43276.20, -187500.02, -50605.00, 0.000, 0.000, 0.000, 14:54:14.363
21, 28645.32, -28095.63, 40886.05, 12936.50, 4071.88, 43346.60, -187500.02, -50694.22, 0.000, 0.000, 0.000, 14:54:14.365
22, 28649.59, -28060.42, 40893.97, 12948.90, 4085.52, 43625.17, -187500.02, -50770.87, 0.000, 0.000, 0.000, 14:54:14.370
23, 28651.07, -28063.75, 40891.13, 12945.33, 4083.53, 43580.85, -187500.02, -50866.11, 0.018, -0.014, 1.048, 14:54:14.375
24, 28646.08, -28101.08, 40878.66, 12932.45, 4067.93, 43300.65, -187500.02, -50979.23, 0.000, 0.000, 0.000, 14:54:14.379
25, 28645.86, -28111.56, 40877.27, 12933.01, 4061.29, 43295.46, -187500.02, -51092.82, 0.000, 0.000, 0.000, 14:54:14.384
26, 28647.36, -28078.39, 40887.13, 12949.57, 4071.35, 43592.83, -187500.02, -51154.16, 0.000, 0.000, 0.000, 14:54:14.389
27, 28651.72, -28068.96, 40890.44, 12951.34, 4074.66, 43608.05, -187500.02, -51259.03, 0.000, 0.000, 0.000, 14:54:14.391
28, 28644.32, -28103.56, 40879.60, 12936.52, 4061.16, 43331.34, -187500.02, -51398.89, 0.000, 0.000, 0.000, 14:54:14.395
29, 28641.44, -28118.40, 40874.43, 12934.02, 4057.36, 43269.55, -187500.02, -51486.10, 0.000, 0.000, 0.000, 14:54:14.398
30, 28643.02, -28088.03, 40878.12, 12945.55, 4067.82, 43548.10, -187500.02, -51541.87, 0.000, 0.000, 0.000, 14:54:14.403
31, 28648.39, -28065.81, 40883.48, 12950.96, 4078.59, 43631.36, -187500.02, -51636.60, 0.000, 0.000, 0.000, 14:54:14.407
32, 28647.80, -28089.23, 40875.50, 12937.84, 4071.68, 43388.55, -187500.02, -51745.83, 0.000, 0.000, 0.000, 14:54:14.411
33, 28646.46, -28111.05, 40865.94, 12928.61, 4065.18, 43252.48, -187500.02, -51834.16, 0.020, -0.020, 1.044, 14:54:14.415
34, 28643.49, -28087.89, 40871.75, 12938.53, 4069.92, 43493.59, -187500.02, -51919.48, 0.000, 0.000, 0.000, 14:54:14.418
35, 28648.63, -28060.36, 40881.94, 12952.39, 4080.69, 43653.76, -187500.02, -52012.08, 0.000, 0.000, 0.000, 14:54:14.422
36, 28654.18, -28076.85, 40876.49, 12946.08, 4078.97, 43447.03, -187500.02, -52121.50, 0.000, 0.000, 0.000, 14:54:14.426
37, 28651.38, -28108.35, 40864.89, 12931.04, 4069.60, 43237.23, -187500.02, -52254.40, 0.000, 0.000, 0.000, 14:54:14.431
38, 28647.29, -28092.61, 40867.05, 12939.71, 4071.19, 43444.70, -187500.02, -52326.48, 0.000, 0.000, 0.000, 14:54:14.434
39, 28652.66, -28060.54, 40880.82, 12954.83, 4083.44, 43652.87, -187500.02, -52407.69, 0.000, 0.000, 0.000, 14:54:14.439
40, 28653.46, -28072.40, 40877.99, 12947.14, 4074.54, 43492.96, -187500.02, -52525.99, 0.000, 0.000, 0.000, 14:54:14.443
41, 28648.92, -28106.47, 40869.96, 12930.66, 4058.61, 43258.40, -187500.02, -52622.78, 0.000, 0.000, 0.000, 14:54:14.447
42, 28644.34, -28100.19, 40874.25, 12931.80, 4057.06, 43389.45, -187500.02, -52702.10, 0.000, 0.000, 0.000, 14:54:14.450
43, 28646.22, -28067.31, 40880.42, 12941.62, 4068.84, 43644.33, -187500.02, -52776.87, 0.016, -0.018, 1.036, 14:54:14.456
44, 28648.30, -28070.79, 40876.04, 12937.23, 4069.14, 43534.87, -187500.02, -52888.23, 0.000, 0.000, 0.000, 14:54:14.458
45, 28644.94, -28105.62, 40864.55, 12923.13, 4057.58, 43267.16, -187500.02, -53003.27, 0.000, 0.000, 0.000, 14:54:14.464
46, 28645.17, -28101.89, 40865.80, 12930.01, 4061.94, 43332.36, -187500.02, -53096.99, 0.000, 0.000, 0.000, 14:54:14.467
47, 28647.63, -28065.72, 40875.73, 12946.38, 4076.15, 43616.30, -187500.02, -53168.38, 0.000, 0.000, 0.000, 14:54:14.471
48, 28651.83, -28063.87, 40876.38, 12942.87, 4079.08, 43576.71, -187500.02, -53276.54, 0.000, 0.000, 0.000, 14:54:14.476
49, 28647.34, -28096.83, 40862.81, 12925.66, 4067.73, 43302.39, -187500.02, -53391.77, 0.000, 0.000, 0.000, 14:54:14.478
50, 28645.21, -28106.45, 40857.73, 12925.10, 4065.04, 43287.66, -187500.02, -53488.84, 0.000, 0.000, 0.000, 14:54:14.482
51, 28646.13, -28072.76, 40868.87, 12936.54, 4076.09, 43582.37, -187500.02, -53554.64, 0.000, 0.000, 0.000, 14:54:14.486
52, 28648.63, -28060.96, 40869.14, 12938.64, 4080.62, 43616.63, -187500.02, -53634.20, 0.000, 0.000, 0.000, 14:54:14.491
53, 28650.33, -28088.70, 40857.85, 12928.83, 4073.00, 43346.38, -187500.02, -53764.35, 0.016, -0.018, 1.040, 14:54:14.495
54, 28647.09, -28106.87, 40853.09, 12927.31, 4065.69, 43266.18, -187500.02, -53856.53, 0.000, 0.000, 0.000, 14:54:14.499
55, 28645.97, -28076.96, 40859.34, 12939.16, 4075.80, 43536.04, -187500.02, -53936.14, 0.000, 0.000, 0.000, 14:54:14.502
56, 28650.98, -28055.84, 40865.67, 12941.39, 4082.84, 43639.45, -187500.02, -54024.86, 0.000, 0.000, 0.000, 14:54:14.506
57, 28651.96, -28081.63, 40859.79, 12928.05, 4071.84, 43399.33, -187500.02, -54131.99, 0.000, 0.000, 0.000, 14:54:14.510
58, 28648.99, -28100.66, 40858.65, 12923.60, 4064.98, 43244.66, -187500.02, -54247.82, 0.000, 0.000, 0.000, 14:54:14.515
59, 28646.20, -28076.34, 40863.82, 12933.79, 4069.16, 43482.19, -187500.02, -54327.23, 0.000, 0.000, 0.000, 14:54:14.519
60, 28649.48, -28050.57, 40870.59, 12944.41, 4079.64, 43650.41, -187500.02, -54411.81, 0.000, 0.000, 0.000, 14:54:14.523
61, 28654.13, -28071.18, 40864.48, 12935.00, 4074.30, 43447.97, -187500.02, -54520.46, 0.000, 0.000, 0.000, 14:54:14.527
62, 28649.55, -28100.86, 40854.76, 12924.38, 4066.48, 43241.77, -187500.02, -54632.45, 0.000, 0.000, 0.000, 14:54:14.531
63, 28647.96, -28083.58, 40864.87, 12937.12, 4076.42, 43438.00, -187500.02, -54704.55, 0.014, -0.018, 1.036, 14:54:14.535
64, 28653.91, -28051.60, 40874.30, 12951.23, 4090.64, 43658.05, -187500.02, -54781.75, 0.000, 0.000, 0.000, 14:54:14.538
65, 28652.83, -28065.41, 40869.94, 12941.64, 4086.52, 43508.77, -187500.02, -54884.04, 0.000, 0.000, 0.000, 14:54:14.543
66, 28652.57, -28094.29, 40864.55, 12929.97, 4076.65, 43256.91, -187500.02, -54994.45, 0.000, 0.000, 0.000, 14:54:14.547
67, 28648.01, -28086.87, 40867.61, 12931.38, 4074.14, 43378.72, -187500.02, -55093.16, 0.000, 0.000, 0.000, 14:54:14.551
68, 28649.59, -28055.10, 40874.66, 12939.96, 4083.57, 43644.86, -187500.02, -55147.43, 0.000, 0.000, 0.000, 14:54:14.555
69, 28654.33, -28058.68, 40872.55, 12938.78, 4083.24, 43543.52, -187500.02, -55261.51, 0.000, 0.000, 0.000, 14:54:14.559
70, 28648.56, -28093.50, 40860.46, 12925.66, 4068.89, 43270.45, -187500.02, -55384.60, 0.000, 0.000, 0.000, 14:54:14.563
71, 28645.08, -28095.63, 40863.03, 12929.95, 4069.11, 43322.02, -187500.02, -55476.02, 0.000, 0.000, 0.000, 14:54:14.566
72, 28645.95, -28064.65, 40873.96, 12945.50, 4080.76, 43601.30, -187500.02, -55567.60, 0.000, 0.000, 0.000, 14:54:14.571
73, 28649.93, -28057.05, 40874.28, 12948.32, 4086.41, 43583.62, -187500.02, -55663.42, 0.016, -0.018, 1.036, 14:54:14.576
74, 28644.63, -28090.89, 40862.70, 12934.04, 4073.36, 43312.79, -187500.02, -55757.14, 0.000, 0.000, 0.000, 14:54:14.579
75, 28640.79, -28105.51, 40859.46, 12928.20, 4067.61, 43278.45, -187500.02, -55862.35, 0.000, 0.000, 0.000, 14:54:14.583
76, 28651.02, -28069.97, 40870.90, 12943.65, 4081.67, 43562.12, -187500.02, -55949.27, 0.000, 0.000, 0.000, 14:54:14.586
77, 28655.70, -28055.04, 40870.83, 12946.80, 4088.20, 43616.54, -187500.02, -56027.73, 0.000, 0.000, 0.000, 14:54:14.590
78, 28650.29, -28084.88, 40860.84, 12931.94, 4075.66, 43351.27, -187500.02, -56137.39, 0.000, 0.000, 0.000, 14:54:14.595
79, 28643.71, -28104.05, 40858.63, 12930.39, 4068.29, 43249.42, -187500.02, -56248.83, 0.000, 0.000, 0.000, 14:54:14.599
80, 28645.84, -28074.86, 40870.52, 12945.79, 4081.03, 43522.64, -187500.02, -56330.53, 0.000, 0.000, 0.000, 14:54:14.603
81, 28649.19, -28056.13, 40875.17, 12951.09, 4086.30, 43640.82, -187500.02, -56418.62, 0.000, 0.000, 0.000, 14:54:14.608
82, 28648.72, -28081.08, 40865.87, 12942.22, 4078.14, 43409.05, -187500.02, -56520.00, 0.000, 0.000, 0.000, 14:54:14.610
83, 28648.03, -28106.27, 40858.77, 12938.51, 4070.05, 43247.70, -187500.02, -56608.52, 0.016, -0.016, 1.036, 14:54:14.614
84, 28646.80, -28085.53, 40863.82, 12948.34, 4076.24, 43473.14, -187500.02, -56691.84, 0.000, 0.000, 0.000, 14:54:14.618
85, 28650.49, -28061.14, 40872.58, 12954.67, 4081.67, 43646.79, -187500.02, -56774.30, 0.000, 0.000, 0.000, 14:54:14.624
86, 28651.07, -28078.17, 40862.65, 12942.42, 4074.30, 43446.85, -187500.02, -56898.55, 0.000, 0.000, 0.000, 14:54:14.627
87, 28645.21, -28106.56, 40854.67, 12934.48, 4062.79, 43233.68, -187500.02, -57004.37, 0.000, 0.000, 0.000, 14:54:14.632
88, 28643.42, -28089.03, 40862.99, 12943.67, 4067.75, 43412.43, -187500.02, -57085.35, 0.000, 0.000, 0.000, 14:54:14.635
89, 28649.64, -28058.86, 40874.54, 12955.36, 4082.88, 43643.32, -187500.02, -57168.18, 0.000, 0.000, 0.000, 14:54:14.638
90, 28649.30, -28073.32, 40870.39, 12944.36, 4077.41, 43507.65, -187500.02, -57263.29, 0.000, 0.000, 0.000, 14:54:14.643
91, 28649.30, -28100.75, 40865.67, 12936.21, 4070.07, 43255.41, -187500.02, -57363.38, 0.000, 0.000, 0.000, 14:54:14.647
92, 28645.23, -28092.43, 40867.01, 12939.74, 4072.67, 43367.97, -187500.02, -57445.97, 0.000, 0.000, 0.000, 14:54:14.650
93, 28644.63, -28063.89, 40872.38, 12946.31, 4081.27, 43631.63, -187500.02, -57519.84, 0.018, -0.016, 1.034, 14:54:14.654
94, 28651.05, -28063.08, 40873.47, 12946.80, 4082.93, 43553.04, -187500.02, -57613.56, 0.000, 0.000, 0.000, 14:54:14.660
95, 28648.70, -28092.43, 40869.70, 12938.73, 4071.37, 43279.41, -187500.02, -57722.57, 0.000, 0.000, 0.000, 14:54:14.664
96, 28649.21, -28091.31, 40876.24, 12943.38, 4072.09, 43317.97, -187500.02, -57831.38, 0.000, 0.000, 0.000, 14:54:14.666
97, 28645.57, -28058.17, 40881.92, 12955.99, 4084.49, 43607.16, -187500.02, -57909.84, 0.000, 0.000, 0.000, 14:54:14.670
98, 28647.63, -28056.71, 40875.84, 12949.48, 4084.96, 43590.30, -187500.02, -58010.84, 0.000, 0.000, 0.000, 14:54:14.674
99, 28654.22, -28086.13, 40872.80, 12939.56, 4078.43, 43313.95, -187500.02, -58140.55, 0.000, 0.000, 0.000, 14:54:14.678
100, 28647.27, -28101.08, 40871.82, 12940.07, 4071.15, 43283.01, -187500.02, -58238.61, 0.000, 0.000, 0.000, 14:54:14.682
101, 28648.83, -28069.25, 40874.72, 12950.26, 4079.30, 43575.35, -187500.02, -58295.52, 0.000, 0.000, 0.000, 14:54:14.686
102, 28653.01, -28051.68, 40876.33, 12955.99, 4087.26, 43637.29, -187500.02, -58357.83, 0.000, 0.000, 0.000, 14:54:14.692
103, 28655.00, -28081.55, 40870.32, 12943.96, 4077.49, 43367.81, -187500.02, -58483.36, 0.016, -0.016, 1.044, 14:54:14.694
104, 28647.89, -28102.06, 40865.45, 12935.49, 4067.97, 43253.48, -187500.02, -58604.95, 0.000, 0.000, 0.000, 14:54:14.698
105, 28645.19, -28075.27, 40869.61, 12945.24, 4073.76, 43521.82, -187500.02, -58687.01, 0.000, 0.000, 0.000, 14:54:14.702
106, 28648.59, -28051.28, 40873.54, 12953.04, 4082.55, 43648.66, -187500.02, -58768.16, 0.000, 0.000, 0.000, 14:54:14.707
107, 28647.36, -28073.43, 40862.32, 12940.45, 4076.02, 43416.16, -187500.02, -58877.11, 0.000, 0.000, 0.000, 14:54:14.711
108, 28641.72, -28103.21, 40852.89, 12928.34, 4067.24, 43235.96, -187500.02, -58989.70, 0.000, 0.000, 0.000, 14:54:14.715
109, 28644.34, -28082.26, 40864.38, 12939.76, 4076.98, 43464.82, -187500.02, -59060.64, 0.000, 0.000, 0.000, 14:54:14.720
110, 28651.83, -28051.97, 40876.62, 12955.21, 4087.49, 43655.48, -187500.02, -59129.91, 0.000, 0.000, 0.000, 14:54:14.722
111, 28652.92, -28070.26, 40870.92, 12946.73, 4078.37, 43464.42, -187500.02, -59237.53, 0.000, 0.000, 0.000, 14:54:14.726
112, 28652.66, -28103.65, 40865.45, 12934.31, 4069.27, 43242.93, -187500.02, -59341.46, 0.000, 0.000, 0.000, 14:54:14.731
113, 28648.32, -28090.22, 40870.25, 12942.31, 4073.47, 43406.73, -187500.02, -59431.63, 0.014, -0.016, 1.044, 14:54:14.735
114, 28652.19, -28057.52, 40879.95, 12957.48, 4086.35, 43648.91, -187500.02, -59501.39, 0.000, 0.000, 0.000, 14:54:14.738
115, 28656.57, -28067.51, 40877.11, 12951.14, 4085.36, 43512.99, -187500.02, -59620.62, 0.000, 0.000, 0.000, 14:54:14.742
116, 28649.82, -28101.91, 40866.63, 12933.59, 4073.14, 43258.76, -187500.02, -59730.27, 0.000, 0.000, 0.000, 14:54:14.748
117, 28645.48, -28100.41, 40868.89, 12935.83, 4075.82, 43351.32, -187500.02, -59824.20, 0.000, 0.000, 0.000, 14:54:14.751
118, 28651.56, -28066.10, 40880.63, 12951.16, 4088.89, 43631.70, -187500.02, -59883.14, 0.000, 0.000, 0.000, 14:54:14.754
119, 28655.00, -28064.42, 40882.48, 12951.38, 4091.40, 43561.56, -187500.02, -59977.44, 0.000, 0.000, 0.000, 14:54:14.758
120, 28656.86, -28097.15, 40873.80, 12937.10, 4081.70, 43284.20, -187500.02, -60098.74, 0.000, 0.000, 0.000, 14:54:14.762
121, 28654.60, -28102.20, 40872.18, 12936.54, 4080.33, 43308.20, -187500.02, -60198.10, 0.000, 0.000, 0.000, 14:54:14.766
122, 28657.30, -28067.69, 40882.48, 12950.98, 4094.68, 43593.34, -187500.02, -60284.57, 0.000, 0.000, 0.000, 14:54:14.770
123, 28657.13, -28061.65, 40882.37, 12952.10, 4097.32, 43597.84, -187500.02, -60374.56, 0.020, -0.012, 1.040, 14:54:14.776
124, 28655.74, -28090.06, 40876.49, 12945.68, 4088.29, 43328.92, -187500.02, -60478.10, 0.000, 0.000, 0.000, 14:54:14.778
125, 28649.84, -28104.14, 40870.59, 12940.52, 4081.34, 43276.08, -187500.02, -60580.63, 0.000, 0.000, 0.000, 14:54:14.782
126, 28648.99, -28075.06, 40876.82, 12949.80, 4088.83, 43563.68, -187500.02, -60629.80, 0.000, 0.000, 0.000, 14:54:14.787
127, 28652.70, -28058.19, 40880.73, 12957.33, 4095.76, 43619.85, -187500.02, -60733.89, 0.000, 0.000, 0.000, 14:54:14.791
128, 28647.92, -28085.48, 40869.79, 12942.00, 4083.73, 43368.02, -187500.02, -60847.39, 0.000, 0.000, 0.000, 14:54:14.797
129, 28641.90, -28108.48, 40860.48, 12929.01, 4073.40, 43239.20, -187500.02, -60955.62, 0.000, 0.000, 0.000, 14:54:14.800
130, 28640.47, -28078.30, 40870.59, 12942.24, 4082.75, 43499.45, -187500.02, -61042.03, 0.000, 0.000, 0.000, 14:54:14.802
131, 28647.36, -28053.54, 40877.76, 12951.92, 4093.43, 43646.32, -187500.02, -61107.63, 0.000, 0.000, 0.000, 14:54:14.806
132, 28647.02, -28076.14, 40870.99, 12941.55, 4087.91, 43415.60, -187500.02, -61225.29, 0.000, 0.000, 0.000, 14:54:14.810
133, 28643.89, -28103.21, 40867.44, 12930.95, 4077.99, 43236.21, -187500.02, -61335.31, 0.016, -0.018, 1.046, 14:54:14.814
134, 28640.21, -28086.93, 40876.45, 12937.84, 4078.86, 43448.68, -187500.02, -61411.17, 0.000, 0.000, 0.000, 14:54:14.819
135, 28646.11, -28055.42, 40888.83, 12953.93, 4095.15, 43648.33, -187500.02, -61496.33, 0.000, 0.000, 0.000, 14:54:14.823
136, 28645.62, -28075.00, 40884.56, 12942.02, 4088.00, 43467.68, -187500.02, -61601.90, 0.000, 0.000, 0.000, 14:54:14.826
137, 28636.00, -28112.44, 40877.47, 12924.29, 4073.09, 43233.55, -187500.02, -61714.64, 0.000, 0.000, 0.000, 14:54:14.831
138, 28645.73, -28101.33, 40885.43, 12934.08, 4077.56, 43386.50, -187500.02, -61810.33, 0.000, 0.000, 0.000, 14:54:14.836
139, 28652.37, -28080.05, 40893.95, 12942.49, 4081.05, 43632.79, -187500.02, -61887.89, 0.000, 0.000, 0.000, 14:54:14.839
140, 28644.10, -28083.60, 40891.35, 12942.38, 4084.60, 43516.74, -187500.02, -61978.30, 0.000, 0.000, 0.000, 14:54:14.842
141, 28639.89, -28107.00, 40885.00, 12937.55, 4085.07, 43260.39, -187500.02, -62082.80, 0.000, 0.000, 0.000, 14:54:14.846
142, 28639.38, -28101.84, 40881.16, 12937.70, 4087.89, 43348.99, -187500.02, -62173.14, 0.000, 0.000, 0.000, 14:54:14.850
143, 28632.88, -28070.08, 40885.77, 12943.94, 4094.03, 43622.04, -187500.02, -62242.63, 0.020, -0.014, 1.050, 14:54:14.855
144, 28634.89, -28067.46, 40886.17, 12945.55, 4095.15, 43564.89, -187500.02, -62346.59, 0.000, 0.000, 0.000, 14:54:14.860
145, 28634.10, -28096.52, 40877.79, 12937.01, 4086.84, 43293.11, -187500.02, -62454.95, 0.000, 0.000, 0.000, 14:54:14.862
146, 28631.02, -28101.64, 40875.75, 12937.03, 4085.36, 43300.67, -187500.02, -62563.45, 0.000, 0.000, 0.000, 14:54:14.865
147, 28629.41, -28070.08, 40879.62, 12946.33, 4095.00, 43592.36, -187500.02, -62633.52, 0.000, 0.000, 0.000, 14:54:14.870
148, 28629.52, -28060.85, 40876.06, 12944.32, 4101.37, 43606.26, -187500.02, -62718.23, 0.000, 0.000, 0.000, 14:54:14.874
149, 28629.43, -28094.40, 40864.44, 12930.08, 4090.57, 43327.83, -187500.02, -62835.31, 0.000, 0.000, 0.000, 14:54:14.879
150, 28625.23, -28106.11, 40863.14, 12931.56, 4086.12, 43263.36, -187500.02, -62946.82, 0.000, 0.000, 0.000, 14:54:14.883
151, 28619.04, -28076.52, 40871.30, 12944.32, 4091.87, 43552.55, -187500.02, -63004.92, 0.000, 0.000, 0.000, 14:54:14.887
152, 28627.33, -28059.53, 40874.48, 12946.96, 4100.27, 43625.22, -187500.02, -63100.29, 0.000, 0.000, 0.000, 14:54:14.889
153, 28626.82, -28087.96, 40866.48, 12933.97, 4092.09, 43370.07, -187500.02, -63231.77, 0.014, -0.014, 1.046, 14:54:14.894
154, 28626.73, -28111.25, 40861.91, 12928.43, 4083.02, 43239.25, -187500.02, -63332.05, 0.000, 0.000, 0.000, 14:54:14.898
155, 28625.39, -28081.66, 40871.80, 12942.89, 4093.19, 43489.52, -187500.02, -63422.43, 0.000, 0.000, 0.000, 14:54:14.903
156, 28630.77, -28055.82, 40876.36, 12947.34, 4102.91, 43641.89, -187500.02, -63496.03, 0.000, 0.000, 0.000, 14:54:14.907
157, 28633.34, -28074.26, 40870.81, 12936.54, 4096.72, 43422.78, -187500.02, -63599.00, 0.000, 0.000, 0.000, 14:54:14.911
158, 28632.11, -28101.71, 40862.99, 12926.86, 4086.19, 43223.38, -187500.02, -63724.31, 0.000, 0.000, 0.000, 14:54:14.914
159, 28638.28, -28084.16, 40869.16, 12935.00, 4094.53, 43436.64, -187500.02, -63803.81, 0.000, 0.000, 0.000, 14:54:14.917
160, 28640.83, -28057.50, 40875.15, 12946.20, 4105.52, 43650.21, -187500.02, -63871.72, 0.000, 0.000, 0.000, 14:54:14.922
161, 28640.03, -28075.53, 40869.71, 12933.19, 4098.71, 43480.60, -187500.02, -63971.90, 0.000, 0.000, 0.000, 14:54:14.927
162, 28635.09, -28110.11, 40864.04, 12917.72, 4083.28, 43240.32, -187500.02, -64067.94, 0.000, 0.000, 0.000, 14:54:14.930
163, 28631.38, -28098.20, 40863.01, 12921.95, 4084.85, 43378.63, -187500.02, -64161.04, 0.000, 0.000, 0.000, 14:54:14.934
164, 28633.61, -28062.66, 40872.51, 12938.66, 4098.37, 43629.46, -187500.02, -64243.11, 0.020, -0.014, 1.044, 14:54:14.939
165, 28639.13, -28066.86, 40871.57, 12937.52, 4099.53, 43526.02, -187500.02, -64344.23, 0.000, 0.000, 0.000, 14:54:14.941
166, 28636.65, -28102.33, 40861.13, 12923.20, 4087.08, 43263.63, -187500.02, -64446.38, 0.000, 0.000, 0.000, 14:54:14.945
167, 28632.38, -28103.43, 40862.61, 12924.31, 4085.34, 43334.69, -187500.02, -64540.19, 0.000, 0.000, 0.000, 14:54:14.950
168, 28630.91, -28071.60, 40872.24, 12936.47, 4093.83, 43617.02, -187500.02, -64602.64, 0.000, 0.000, 0.000, 14:54:14.954
169, 28636.79, -28072.38, 40878.05, 12935.83, 4097.63, 43564.69, -187500.02, -64702.69, 0.000, 0.000, 0.000, 14:54:14.959
170, 28634.91, -28108.32, 40868.78, 12920.89, 4087.98, 43283.14, -187500.02, -64841.76, 0.000, 0.000, 0.000, 14:54:14.963
171, 28628.92, -28118.29, 40865.98, 12917.09, 4080.33, 43293.74, -187500.02, -64915.10, 0.000, 0.000, 0.000, 14:54:14.967
172, 28636.25, -28081.90, 40877.25, 12932.21, 4093.30, 43583.15, -187500.02, -64971.87, 0.000, 0.000, 0.000, 14:54:14.970
173, 28637.93, -28070.66, 40882.08, 12932.21, 4095.69, 43601.61, -187500.02, -65062.11, 0.000, 0.000, 0.000, 14:54:14.974
174, 28634.35, -28099.70, 40875.73, 12919.60, 4085.41, 43326.20, -187500.02, -65177.71, 0.020, -0.020, 1.044, 14:54:14.978
175, 28627.69, -28114.80, 40869.07, 12913.38, 4079.26, 43248.48, -187500.02, -65286.25, 0.000, 0.000, 0.000, 14:54:14.982
176, 28630.10, -28082.82, 40877.54, 12927.60, 4090.48, 43526.42, -187500.02, -65367.47, 0.000, 0.000, 0.000, 14:54:14.986
177, 28645.21, -28062.93, 40886.12, 12936.94, 4100.90, 43623.00, -187500.02, -65451.65, 0.000, 0.000, 0.000, 14:54:14.990
178, 28645.26, -28086.35, 40881.54, 12929.32, 4095.91, 43373.16, -187500.02, -65580.95, 0.000, 0.000, 0.000, 14:54:14.995
179, 28639.42, -28109.87, 40878.86, 12923.24, 4085.18, 43234.89, -187500.02, -65676.33, 0.000, 0.000, 0.000, 14:54:14.998
180, 28638.26, -28085.28, 40891.64, 12934.10, 4093.41, 43474.01, -187500.02, -65766.61, 0.000, 0.000, 0.000, 14:54:15.001
181, 28641.10, -28063.38, 40895.06, 12938.53, 4101.61, 43635.72, -187500.02, -65839.25, 0.000, 0.000, 0.000, 14:54:15.005
182, 28645.32, -28077.90, 40886.77, 12933.30, 4099.58, 43423.25, -187500.02, -65950.14, 0.000, 0.000, 0.000, 14:54:15.011
183, 28640.50, -28105.28, 40879.71, 12922.01, 4090.28, 43224.45, -187500.02, -66057.67, 0.000, 0.000, 0.000, 14:54:15.015
184, 28638.69, -28088.47, 40885.25, 12929.54, 4095.33, 43422.69, -187500.02, -66136.93, 0.016, -0.016, 1.038, 14:54:15.019
185, 28640.43, -28057.34, 40893.21, 12939.16, 4105.26, 43636.50, -187500.02, -66214.18, 0.000, 0.000, 0.000, 14:54:15.022
186, 28644.38, -28069.03, 40888.63, 12934.17, 4099.87, 43477.11, -187500.02, -66313.42, 0.000, 0.000, 0.000, 14:54:15.026
187, 28636.81, -28103.23, 40877.34, 12918.88, 4083.73, 43227.80, -187500.02, -66432.60, 0.000, 0.000, 0.000, 14:54:15.030
188, 28633.28, -28094.80, 40880.51, 12923.13, 4084.13, 43359.90, -187500.02, -66533.07, 0.000, 0.000, 0.000, 14:54:15.033
189, 28639.07, -28058.17, 40895.49, 12939.83, 4100.67, 43630.56, -187500.02, -66591.14, 0.000, 0.000, 0.000, 14:54:15.037
190, 28640.63, -28063.35, 40890.86, 12936.47, 4100.61, 43532.50, -187500.02, -66683.45, 0.000, 0.000, 0.000, 14:54:15.042
191, 28635.96, -28097.62, 40881.09, 12926.50, 4089.41, 43266.45, -187500.02, -66785.87, 0.000, 0.000, 0.000, 14:54:15.046
192, 28634.04, -28095.58, 40885.23, 12931.42, 4089.52, 43330.35, -187500.02, -66863.50, 0.000, 0.000, 0.000, 14:54:15.051
193, 28636.54, -28061.09, 40895.82, 12945.17, 4101.97, 43611.83, -187500.02, -66934.11, 0.000, 0.000, 0.000, 14:54:15.065
194, 28644.86, -28056.60, 40896.27, 12940.30, 4103.94, 43572.51, -187500.02, -67032.08, 0.016, -0.014, 1.042, 14:54:15.065
195, 28640.38, -28090.60, 40883.35, 12923.58, 4091.69, 43286.57, -187500.02, -67167.13, 0.000, 0.000, 0.000, 14:54:15.065
196, 28630.95, -28102.96, 40876.85, 12918.50, 4085.70, 43267.93, -187500.02, -67280.80, 0.000, 0.000, 0.000, 14:54:15.065
197, 28633.68, -28071.22, 40886.30, 12928.07, 4094.15, 43560.71, -187500.02, -67358.16, 0.000, 0.000, 0.000, 14:54:15.070
198, 28641.26, -28055.28, 40891.13, 12933.25, 4102.44, 43604.99, -187500.02, -67438.54, 0.000, 0.000, 0.000, 14:54:15.075
199, 28641.99, -28087.76, 40884.78, 12923.13, 4094.08, 43339.36, -187500.02, -67538.05, 0.000, 0.000, 0.000, 14:54:15.079
200, 28637.41, -28105.22, 40884.00, 12920.63, 4088.65, 43250.40, -187500.02, -67645.32, 0.000, 0.000, 0.000, 14:54:15.081
201, 28639.67, -28071.67, 40895.62, 12935.87, 4102.64, 43531.90, -187500.02, -67710.00, 0.000, 0.000, 0.000, 14:54:15.086
202, 28646.58, -28047.46, 40900.81, 12939.49, 4112.59, 43631.88, -187500.02, -67794.42, 0.000, 0.000, 0.000, 14:54:15.091
203, 28645.90, -28070.57, 40892.76, 12924.67, 4101.68, 43391.08, -187500.02, -67901.52, 0.000, 0.000, 0.000, 14:54:15.095
204, 28642.26, -28097.01, 40886.99, 12913.25, 4088.60, 43234.73, -187500.02, -68000.87, 0.014, -0.018, 1.042, 14:54:15.098
205, 28634.89, -28076.96, 40893.03, 12920.13, 4089.43, 43468.71, -187500.02, -68085.73, 0.000, 0.000, 0.000, 14:54:15.103
206, 28633.88, -28055.84, 40899.11, 12925.30, 4092.18, 43637.18, -187500.02, -68159.54, 0.000, 0.000, 0.000, 14:54:15.106
207, 28635.02, -28075.67, 40894.86, 12919.71, 4087.40, 43432.21, -187500.02, -68268.69, 0.000, 0.000, 0.000, 14:54:15.111
208, 28629.39, -28105.13, 40889.34, 12911.46, 4079.77, 43228.00, -187500.02, -68372.24, 0.000, 0.000, 0.000, 14:54:15.114
209, 28626.86, -28088.97, 40893.54, 12921.23, 4086.86, 43416.68, -187500.02, -68446.45, 0.000, 0.000, 0.000, 14:54:15.117
210, 28631.71, -28056.67, 40899.94, 12933.70, 4097.86, 43643.81, -187500.02, -68514.11, 0.000, 0.000, 0.000, 14:54:15.122
211, 28634.53, -28067.38, 40895.02, 12925.03, 4095.09, 43493.09, -187500.02, -68608.55, 0.000, 0.000, 0.000, 14:54:15.126
212, 28630.35, -28099.47, 40885.30, 12907.42, 4081.81, 43237.82, -187500.02, -68727.16, 0.000, 0.000, 0.000, 14:54:15.131
213, 28632.76, -28090.69, 40887.51, 12910.19, 4082.81, 43364.57, -187500.02, -68807.88, 0.000, 0.000, 0.000, 14:54:15.136
214, 28638.80, -28055.39, 40896.40, 12923.60, 4094.53, 43621.35, -187500.02, -68890.02, 0.018, -0.016, 1.040, 14:54:15.140
215, 28636.36, -28062.32, 40896.65, 12920.05, 4089.27, 43529.26, -187500.02, -68993.48, 0.000, 0.000, 0.000, 14:54:15.143
216, 28632.11, -28098.64, 40894.95, 12909.12, 4076.04, 43261.98, -187500.02, -69097.98, 0.000, 0.000, 0.000, 14:54:15.146
217, 28623.84, -28099.81, 40889.14, 12911.13, 4073.81, 43316.70, -187500.02, -69176.19, 0.000, 0.000, 0.000, 14:54:15.150
218, 28632.94, -28062.41, 40900.18, 12926.77, 4090.84, 43603.25, -187500.02, -69254.95, 0.000, 0.000, 0.000, 14:54:15.154
219, 28638.64, -28053.70, 40902.19, 12926.48, 4095.26, 43587.20, -187500.02, -69347.31, 0.000, 0.000, 0.000, 14:54:15.158
220, 28636.29, -28081.90, 40890.14, 12914.57, 4083.91, 43312.36, -187500.02, -69453.10, 0.000, 0.000, 0.000, 14:54:15.162
221, 28631.94, -28090.98, 40885.65, 12915.26, 4079.82, 43282.88, -187500.02, -69557.98, 0.000, 0.000, 0.000, 14:54:15.166
222, 28634.10, -28055.66, 40897.32, 12933.77, 4091.31, 43575.37, -187500.02, -69624.66, 0.000, 0.000, 0.000, 14:54:15.170
223, 28635.76, -28042.86, 40897.57, 12939.11, 4096.56, 43619.96, -187500.02, -69710.71, 0.000, 0.000, 0.000, 14:54:15.174
224, 28633.68, -28071.69, 40889.36, 12928.05, 4089.79, 43351.65, -187500.02, -69829.91, 0.018, -0.018, 1.040, 14:54:15.177
225, 28629.03, -28089.37, 40881.74, 12922.62, 4082.99, 43255.09, -187500.02, -69928.30, 0.000, 0.000, 0.000, 14:54:15.183
226, 28629.97, -28063.17, 40883.35, 12928.87, 4091.58, 43525.02, -187500.02, -70006.24, 0.000, 0.000, 0.000, 14:54:15.187
227, 28638.57, -28042.56, 40887.87, 12934.10, 4100.38, 43644.86, -187500.02, -70072.80, 0.000, 0.000, 0.000, 14:54:15.190
228, 28639.27, -28066.50, 40881.94, 12923.04, 4090.44, 43402.64, -187500.02, -70186.40, 0.000, 0.000, 0.000, 14:54:15.194
229, 28632.47, -28097.24, 40877.34, 12912.51, 4074.83, 43235.31, -187500.02, -70289.06, 0.000, 0.000, 0.000, 14:54:15.198
230, 28632.03, -28074.73, 40885.23, 12924.63, 4078.99, 43465.94, -187500.02, -70368.99, 0.000, 0.000, 0.000, 14:54:15.203
231, 28636.85, -28043.03, 40894.10, 12934.71, 4090.35, 43645.78, -187500.02, -70444.67, 0.000, 0.000, 0.000, 14:54:15.207
232, 28636.96, -28065.68, 40885.72, 12920.25, 4082.64, 43445.11, -187500.02, -70568.41, 0.000, 0.000, 0.000, 14:54:15.209
233, 28631.04, -28100.21, 40871.50, 12904.58, 4066.88, 43232.21, -187500.02, -70659.09, 0.000, 0.000, 0.000, 14:54:15.216
234, 28633.03, -28088.03, 40875.93, 12910.50, 4067.55, 43409.63, -187500.02, -70723.02, 0.020, -0.022, 1.042, 14:54:15.220
235, 28648.07, -28056.82, 40892.31, 12926.13, 4087.11, 43631.79, -187500.02, -70811.13, 0.000, 0.000, 0.000, 14:54:15.223
236, 28648.36, -28062.90, 40894.44, 12926.64, 4093.36, 43494.10, -187500.02, -70935.59, 0.000, 0.000, 0.000, 14:54:15.226
237, 28636.14, -28095.52, 40883.15, 12916.92, 4080.04, 43250.09, -187500.02, -71032.59, 0.000, 0.000, 0.000, 14:54:15.230
238, 28631.80, -28091.89, 40885.32, 12920.85, 4075.80, 43357.38, -187500.02, -71123.85, 0.000, 0.000, 0.000, 14:54:15.234
239, 28640.21, -28060.98, 40894.88, 12931.02, 4083.98, 43619.56, -187500.02, -71202.33, 0.000, 0.000, 0.000, 14:54:15.238
240, 28641.32, -28064.54, 40897.34, 12927.18, 4082.08, 43543.75, -187500.02, -71290.13, 0.000, 0.000, 0.000, 14:54:15.243
241, 28632.03, -28100.93, 40888.56, 12911.08, 4067.46, 43275.61, -187500.02, -71377.66, 0.000, 0.000, 0.000, 14:54:15.246
242, 28630.77, -28101.19, 40890.66, 12913.79, 4065.87, 43313.23, -187500.02, -71449.54, 0.000, 0.000, 0.000, 14:54:15.249
243, 28634.17, -28066.08, 40903.71, 12928.20, 4078.54, 43595.38, -187500.02, -71528.24, 0.000, 0.000, 0.000, 14:54:15.253
244, 28640.05, -28061.43, 40908.14, 12927.76, 4080.56, 43578.99, -187500.02, -71636.83, 0.014, -0.020, 1.042, 14:54:15.258
245, 28639.56, -28095.05, 40901.25, 12916.65, 4069.49, 43306.37, -187500.02, -71743.84, 0.000, 0.000, 0.000, 14:54:15.262
246, 28633.72, -28109.62, 40899.60, 12914.93, 4063.95, 43275.08, -187500.02, -71822.55, 0.000, 0.000, 0.000, 14:54:15.266
247, 28636.58, -28078.91, 40907.74, 12926.55, 4075.19, 43559.57, -187500.02, -71879.90, 0.000, 0.000, 0.000, 14:54:15.271
248, 28646.53, -28065.32, 40914.06, 12930.01, 4083.31, 43609.10, -187500.02, -71986.38, 0.000, 0.000, 0.000, 14:54:15.274
249, 28650.38, -28095.83, 40907.25, 12917.45, 4075.95, 43344.03, -187500.02, -72119.78, 0.000, 0.000, 0.000, 14:54:15.279
250, 28645.62, -28114.58, 40901.50, 12913.41, 4071.35, 43241.37, -187500.02, -72214.53, 0.000, 0.000, 0.000, 14:54:15.282
251, 28646.75, -28083.60, 40906.78, 12924.92, 4082.39, 43506.29, -187500.02, -72289.98, 0.000, 0.000, 0.000, 14:54:15.287
252, 28649.53, -28065.45, 40913.05, 12927.69, 4085.03, 43637.55, -187500.02, -72356.20, 0.000, 0.000, 0.000, 14:54:15.291
253, 28648.52, -28088.90, 40905.39, 12918.15, 4077.43, 43401.81, -187500.02, -72456.91, 0.000, 0.000, 0.000, 14:54:15.294
254, 28644.72, -28112.97, 40897.03, 12911.24, 4069.05, 43221.32, -187500.02, -72576.13, 0.018, -0.020, 1.042, 14:54:15.298
255, 28639.74, -28096.34, 40901.75, 12915.75, 4071.64, 43456.24, -187500.02, -72627.30, 0.000, 0.000, 0.000, 14:54:15.302
0, 28645.73, -28069.72, 40911.13, 12922.15, 4084.18, 43637.27, -187500.02, -72700.30, 0.000, 0.000, 0.000, 14:54:15.305
1, 28646.58, -28084.77, 40907.65, 12914.48, 4078.86, 43442.71, -187500.02, -72823.99, 0.000, 0.000, 0.000, 14:54:15.310
2, 28645.62, -28114.27, 40899.85, 12907.33, 4069.27, 43221.12, -187500.02, -72939.33, 0.000, 0.000, 0.000, 14:54:15.314
3, 28648.88, -28103.16, 40902.64, 12910.14, 4073.02, 43391.95, -187500.02, -73015.15, 0.000, 0.000, 0.000, 14:54:15.318
4, 28651.74, -28068.85, 40913.53, 12925.32, 4085.30, 43632.70, -187500.02, -73077.33, 0.000, 0.000, 0.000, 14:54:15.322
5, 28657.60, -28074.39, 40911.27, 12925.52, 4086.01, 43492.94, -187500.02, -73196.95, 0.000, 0.000, 0.000, 14:54:15.327
6, 28651.78, -28107.07, 40898.59, 12915.71, 4073.40, 43243.58, -187500.02, -73309.18, 0.000, 0.000, 0.000, 14:54:15.330
7, 28649.59, -28100.21, 40904.12, 12923.76, 4075.82, 43351.65, -187500.02, -73375.95, 0.000, 0.000, 0.000, 14:54:15.333
8, 28654.00, -28066.68, 40914.49, 12933.34, 4089.77, 43619.32, -187500.02, -73448.32, 0.018, -0.018, 1.044, 14:54:15.338
9, 28658.36, -28069.37, 40913.64, 12927.06, 4092.58, 43545.22, -187500.02, -73560.28, 0.000, 0.000, 0.000, 14:54:15.342
10, 28655.56, -28103.16, 40902.57, 12909.74, 4081.05, 43271.68, -187500.02, -73668.91, 0.000, 0.000, 0.000, 14:54:15.347
11, 28653.13, -28106.36, 40899.36, 12905.18, 4078.61, 43302.46, -187500.02, -73737.20, 0.000, 0.000, 0.000, 14:54:15.350
12, 28654.53, -28074.44, 40907.47, 12912.36, 4088.27, 43585.97, -187500.02, -73793.43, 0.000, 0.000, 0.000, 14:54:15.354
13, 28660.97, -28060.98, 40909.01, 12916.47, 4097.95, 43579.29, -187500.02, -73898.64, 0.000, 0.000, 0.000, 14:54:15.358
14, 28660.66, -28088.30, 40900.29, 12906.32, 4092.36, 43306.01, -187500.02, -74026.74, 0.000, 0.000, 0.000, 14:54:15.361
15, 28654.11, -28101.62, 40898.21, 12900.76, 4084.98, 43258.52, -187500.02, -74118.27, 0.000, 0.000, 0.000, 14:54:15.366
16, 28646.55, -28072.49, 40904.77, 12910.14, 4090.50, 43541.93, -187500.02, -74185.10, 0.000, 0.000, 0.000, 14:54:15.371
17, 28651.09, -28056.82, 40910.87, 12915.40, 4097.32, 43611.18, -187500.02, -74266.04, 0.000, 0.000, 0.000, 14:54:15.374
18, 28650.11, -28089.37, 40901.03, 12904.24, 4084.54, 43351.27, -187500.02, -74383.41, 0.018, -0.014, 1.044, 14:54:15.378
19, 28648.19, -28111.43, 40895.78, 12903.26, 4078.99, 43231.82, -187500.02, -74478.73, 0.000, 0.000, 0.000, 14:54:15.382
20, 28651.52, -28082.42, 40904.27, 12922.35, 4093.03, 43495.89, -187500.02, -74548.85, 0.000, 0.000, 0.000, 14:54:15.386
21, 28650.31, -28057.63, 40909.01, 12931.33, 4100.63, 43630.36, -187500.02, -74639.06, 0.000, 0.000, 0.000, 14:54:15.389
22, 28649.88, -28082.37, 40901.79, 12919.89, 4089.43, 43407.18, -187500.02, -74745.66, 0.000, 0.000, 0.000, 14:54:15.394
23, 28644.61, -28110.04, 40895.91, 12910.95, 4079.46, 43217.68, -187500.02, -74853.84, 0.000, 0.000, 0.000, 14:54:15.398
24, 28644.68, -28089.12, 40903.78, 12921.01, 4086.77, 43429.57, -187500.02, -74949.80, 0.000, 0.000, 0.000, 14:54:15.402
25, 28648.92, -28061.32, 40910.64, 12929.95, 4096.20, 43636.55, -187500.02, -75010.26, 0.000, 0.000, 0.000, 14:54:15.406
26, 28652.48, -28073.10, 40905.17, 12922.57, 4092.07, 43457.36, -187500.02, -75117.48, 0.000, 0.000, 0.000, 14:54:15.410
27, 28649.88, -28105.89, 40897.12, 12909.58, 4079.26, 43228.63, -187500.02, -75219.67, 0.000, 0.000, 0.000, 14:54:15.414
28, 28647.16, -28093.48, 40901.34, 12914.08, 4080.60, 43388.64, -187500.02, -75283.47, 0.018, -0.014, 1.040, 14:54:15.417
29, 28647.51, -28063.31, 40908.03, 12922.53, 4090.88, 43632.41, -187500.02, -75346.86, 0.000, 0.000, 0.000, 14:54:15.421
30, 28650.02, -28068.07, 40903.67, 12916.27, 4090.88, 43506.57, -187500.02, -75446.19, 0.000, 0.000, 0.000, 14:54:15.426
31, 28645.99, -28099.65, 40895.33, 12904.40, 4080.27, 43239.96, -187500.02, -75566.64, 0.000, 0.000, 0.000, 14:54:15.430
32, 28640.59, -28097.53, 40898.98, 12906.43, 4081.18, 43335.47, -187500.02, -75648.74, 0.000, 0.000, 0.000, 14:54:15.435
33, 28643.78, -28065.30, 40909.30, 12919.00, 4094.53, 43616.99, -187500.02, -75704.13, 0.000, 0.000, 0.000, 14:54:15.438
34, 28649.91, -28066.73, 40909.12, 12918.32, 4097.03, 43561.71, -187500.02, -75792.91, 0.000, 0.000, 0.000, 14:54:15.443
35, 28645.79, -28103.63, 40897.07, 12902.54, 4080.82, 43278.43, -187500.02, -75909.43, 0.000, 0.000, 0.000, 14:54:15.446
36, 28642.53, -28108.88, 40896.96, 12902.16, 4074.63, 43291.57, -187500.02, -75996.66, 0.000, 0.000, 0.000, 14:54:15.449
37, 28650.46, -28068.74, 40909.86, 12921.79, 4090.79, 43581.36, -187500.02, -76069.27, 0.000, 0.000, 0.000, 14:54:15.454
38, 28647.85, -28058.84, 40908.86, 12922.06, 4092.25, 43589.68, -187500.02, -76170.79, 0.024, -0.012, 1.040, 14:54:15.459
39, 28644.56, -28089.75, 40897.12, 12908.04, 4080.47, 43317.21, -187500.02, -76279.75, 0.000, 0.000, 0.000, 14:54:15.463
40, 28648.68, -28099.54, 40900.00, 12910.68, 4080.78, 43258.22, -187500.02, -76363.48, 0.000, 0.000, 0.000, 14:54:15.467
41, 28649.24, -28073.32, 40907.67, 12918.17, 4087.87, 43538.94, -187500.02, -76435.88, 0.000, 0.000, 0.000, 14:54:15.471
42, 28647.87, -28058.55, 40910.66, 12918.37, 4092.07, 43614.71, -187500.02, -76533.24, 0.000, 0.000, 0.000, 14:54:15.473
43, 28647.38, -28085.23, 40903.98, 12906.39, 4081.00, 43362.54, -187500.02, -76652.00, 0.000, 0.000, 0.000, 14:54:15.478
44, 28647.51, -28109.24, 40900.16, 12902.54, 4072.49, 43236.61, -187500.02, -76753.63, 0.000, 0.000, 0.000, 14:54:15.483
45, 28643.60, -28086.04, 40907.00, 12914.48, 4077.36, 43497.57, -187500.02, -76807.68, 0.000, 0.000, 0.000, 14:54:15.486
46, 28651.63, -28058.68, 40913.59, 12926.19, 4091.20, 43641.46, -187500.02, -76892.91, 0.000, 0.000, 0.000, 14:54:15.490
47, 28651.02, -28079.02, 40903.78, 12910.68, 4081.00, 43424.10, -187500.02, -77000.53, 0.000, 0.000, 0.000, 14:54:15.494
48, 28647.60, -28107.34, 40894.57, 12900.40, 4067.53, 43234.33, -187500.02, -77098.20, 0.020, -0.012, 1.034, 14:54:15.498
49, 28646.84, -28086.33, 40896.02, 12910.50, 4074.01, 43446.11, -187500.02, -77153.16, 0.000, 0.000, 0.000, 14:54:15.501
50, 28651.20, -28055.44, 40903.94, 12922.12, 4086.88, 43643.66, -187500.02, -77240.85, 0.000, 0.000, 0.000, 14:54:15.505
51, 28652.14, -28069.12, 40897.84, 12914.77, 4082.12, 43475.50, -187500.02, -77348.63, 0.000, 0.000, 0.000, 14:54:15.510
52, 28641.95, -28103.65, 40886.43, 12899.06, 4066.92, 43237.84, -187500.02, -77454.80, 0.000, 0.000, 0.000, 14:54:15.515
53, 28637.68, -28093.17, 40889.83, 12905.38, 4067.53, 43379.35, -187500.02, -77547.95, 0.000, 0.000, 0.000, 14:54:15.519
54, 28639.04, -28061.14, 40894.71, 12915.28, 4076.13, 43637.22, -187500.02, -77610.71, 0.000, 0.000, 0.000, 14:54:15.521
55, 28642.84, -28071.00, 40890.04, 12906.41, 4071.88, 43525.30, -187500.02, -77693.74, 0.000, 0.000, 0.000, 14:54:15.525
56, 28641.95, -28102.98, 40884.96, 12900.85, 4063.50, 43259.61, -187500.02, -77801.19, 0.000, 0.000, 0.000, 14:54:15.529
57, 28643.25, -28098.78, 40887.46, 12907.15, 4068.58, 43338.64, -187500.02, -77877.72, 0.000, 0.000, 0.000, 14:54:15.533
58, 28645.41, -28066.88, 40897.34, 12915.69, 4079.95, 43615.61, -187500.02, -77951.84, 0.000, 0.000, 0.000, 14:54:15.538
59, 28643.96, -28064.04, 40896.79, 12912.36, 4078.03, 43570.28, -187500.02, -78036.69, 0.024, -0.014, 1.026, 14:54:15.542
60, 28639.74, -28098.53, 40883.86, 12896.17, 4062.30, 43281.20, -187500.02, -78166.95, 0.000, 0.000, 0.000, 14:54:15.546
61, 28637.19, -28109.40, 40881.29, 12889.71, 4053.47, 43278.32, -187500.02, -78254.30, 0.000, 0.000, 0.000, 14:54:15.550
62, 28631.91, -28072.76, 40893.77, 12903.35, 4067.70, 43576.47, -187500.02, -78298.98, 0.000, 0.000, 0.000, 14:54:15.553
63, 28634.75, -28056.45, 40900.59, 12911.78, 4077.70, 43606.78, -187500.02, -78357.75, 0.000, 0.000, 0.000, 14:54:15.557
64, 28649.86, -28085.66, 40891.49, 12900.69, 4072.04, 43328.03, -187500.02, -78479.92, 0.000, 0.000, 0.000, 14:54:15.562
65, 28648.70, -28107.36, 40882.08, 12893.83, 4063.64, 43254.18, -187500.02, -78581.31, 0.000, 0.000, 0.000, 14:54:15.565
66, 28646.20, -28071.02, 40894.55, 12914.03, 4079.33, 43535.68, -187500.02, -78651.45, 0.000, 0.000, 0.000, 14:54:15.570
67, 28649.39, -28048.58, 40902.95, 12920.85, 4087.66, 43631.16, -187500.02, -78727.78, 0.000, 0.000, 0.000, 14:54:15.574
68, 28652.39, -28076.12, 40897.63, 12911.28, 4076.51, 43379.91, -187500.02, -78844.08, 0.000, 0.000, 0.000, 14:54:15.578
0, 28604.04, -27998.71, 40883.38, 12905.43, 4046.56, 44129.85, 0.00, -66377.77, 0.018, -0.016, 1.036, 14:54:15.607
1, 28624.36, -28010.36, 40890.32, 12908.78, 4060.46, 43912.14, 0.00, -66535.04, 0.000, 0.000, 0.000, 14:54:15.609
2, 28626.68, -28052.58, 40881.29, 12897.72, 4056.42, 43564.06, 0.00, -66684.69, 0.000, 0.000, 0.000, 14:54:15.614
3, 28623.67, -28060.42, 40877.18, 12898.30, 4058.25, 43557.94, 0.00, -66795.34, 0.000, 0.000, 0.000, 14:54:15.619
4, 28627.13, -28030.58, 40886.99, 12909.90, 4069.74, 43802.38, 0.00, -66898.12, 0.020, -0.022, 1.040, 14:54:15.621
5, 28634.17, -28030.03, 40891.53, 12912.40, 4074.59, 43752.20, 0.00, -67015.60, 0.000, 0.000, 0.000, 14:54:15.624
6, 28640.81, -28064.45, 40886.95, 12906.81, 4068.42, 43449.00, 0.00, -67165.11, 0.000, 0.000, 0.000, 14:54:15.628
7, 28639.02, -28079.49, 40888.43, 12903.71, 4062.56, 43395.31, 0.00, -67301.97, 0.000, 0.000, 0.000, 14:54:15.633
8, 28635.06, -28050.59, 40894.79, 12916.45, 4068.93, 43671.13, 0.00, -67404.86, 0.000, 0.000, 0.000, 14:54:15.638
9, 28640.23, -28032.60, 40896.23, 12925.14, 4079.69, 43723.23, 0.00, -67494.69, 0.000, 0.000, 0.000, 14:54:15.641
10, 28642.13, -28061.59, 40885.32, 12916.11, 4073.00, 43440.61, 0.00, -67634.45, 0.000, 0.000, 0.000, 14:54:15.645
11, 28637.59, -28082.84, 40879.39, 12909.79, 4064.80, 43324.30, 0.00, -67774.06, 0.000, 0.000, 0.000, 14:54:15.648
12, 28637.30, -28054.48, 40890.08, 12921.86, 4072.06, 43596.81, 0.00, -67842.05, 0.000, 0.000, 0.000, 14:54:15.652
13, 28639.96, -28034.47, 40893.79, 12924.38, 4079.69, 43702.46, 0.00, -67941.66, 0.000, 0.000, 0.000, 14:54:15.657
14, 28640.07, -28060.98, 40884.40, 12909.96, 4071.50, 43454.83, 0.00, -68069.15, 0.022, -0.018, 1.044, 14:54:15.661
15, 28641.35, -28084.77, 40882.01, 12904.67, 4068.53, 43292.82, 0.00, -68179.75, 0.000, 0.000, 0.000, 14:54:15.666
16, 28643.83, -28062.46, 40890.77, 12915.51, 4078.57, 43519.79, 0.00, -68266.67, 0.000, 0.000, 0.000, 14:54:15.670
17, 28651.20, -28033.76, 40899.89, 12924.69, 4092.74, 43694.78, 0.00, -68374.97, 0.000, 0.000, 0.000, 14:54:15.672
18, 28648.52, -28057.45, 40893.23, 12909.83, 4082.05, 43498.97, 0.00, -68498.17, 0.000, 0.000, 0.000, 14:54:15.676
19, 28642.15, -28091.83, 40881.47, 12894.12, 4069.83, 43272.95, 0.00, -68622.36, 0.000, 0.000, 0.000, 14:54:15.681
20, 28640.50, -28080.52, 40886.30, 12899.10, 4073.16, 43449.64, 0.00, -68707.67, 0.000, 0.000, 0.000, 14:54:15.687
21, 28644.63, -28051.04, 40890.61, 12908.11, 4081.56, 43677.27, 0.00, -68787.36, 0.000, 0.000, 0.000, 14:54:15.691
22, 28648.54, -28055.24, 40890.04, 12910.28, 4083.53, 43538.80, 0.00, -68896.32, 0.000, 0.000, 0.000, 14:54:15.695
23, 28647.51, -28087.92, 40882.48, 12903.06, 4076.80, 43282.77, 0.00, -69019.88, 0.000, 0.000, 0.000, 14:54:15.697
24, 28649.82, -28081.17, 40884.96, 12907.75, 4080.94, 43395.42, 0.00, -69105.83, 0.018, -0.016, 1.042, 14:54:15.702
25, 28647.40, -28045.34, 40895.06, 12920.54, 4092.22, 43657.02, 0.00, -69197.84, 0.000, 0.000, 0.000, 14:54:15.705
26, 28653.48, -28043.10, 40892.61, 12920.49, 4093.57, 43577.77, 0.00, -69320.85, 0.000, 0.000, 0.000, 14:54:15.708
27, 28657.48, -28076.65, 40878.75, 12907.98, 4081.83, 43302.70, 0.00, -69446.11, 0.000, 0.000, 0.000, 14:54:15.712
28, 28651.72, -28082.98, 40876.94, 12909.92, 4077.99, 43333.48, 0.00, -69559.88, 0.000, 0.000, 0.000, 14:54:15.716
29, 28656.19, -28048.46, 40889.14, 12927.67, 4088.76, 43626.54, 0.00, -69630.58, 0.000, 0.000, 0.000, 14:54:15.721
30, 28658.24, -28040.87, 40892.29, 12927.11, 4090.48, 43614.64, 0.00, -69729.44, 0.000, 0.000, 0.000, 14:54:15.726
31, 28653.19, -28071.89, 40883.04, 12918.17, 4079.86, 43334.84, 0.00, -69859.73, 0.000, 0.000, 0.000, 14:54:15.728
32, 28645.64, -28084.21, 40878.88, 12917.61, 4072.00, 43304.45, 0.00, -69947.48, 0.000, 0.000, 0.000, 14:54:15.732
33, 28644.54, -28053.27, 40886.88, 12930.73, 4082.30, 43583.53, 0.00, -70022.60, 0.000, 0.000, 0.000, 14:54:15.737
34, 28647.54, -28040.66, 40892.58, 12934.08, 4089.34, 43641.62, 0.00, -70126.38, 0.018, -0.010, 1.042, 14:54:15.741
35, 28646.17, -28071.00, 40884.47, 12919.82, 4079.28, 43373.43, 0.00, -70263.53, 0.000, 0.000, 0.000, 14:54:15.744
36, 28644.79, -28087.45, 40880.67, 12916.87, 4075.64, 43267.39, 0.00, -70373.08, 0.000, 0.000, 0.000, 14:54:15.748
37, 28640.32, -28065.90, 40884.16, 12919.55, 4077.18, 43535.36, 0.00, -70434.63, 0.000, 0.000, 0.000, 14:54:15.753
38, 28647.71, -28040.46, 40893.43, 12927.15, 4084.85, 43656.26, 0.00, -70527.06, 0.000, 0.000, 0.000, 14:54:15.757
39, 28647.20, -28059.24, 40888.83, 12919.67, 4076.31, 43422.31, 0.00, -70657.95, 0.000, 0.000, 0.000, 14:54:15.760
40, 28639.00, -28088.25, 40882.95, 12911.19, 4063.57, 43250.49, 0.00, -70761.22, 0.000, 0.000, 0.000, 14:54:15.765
41, 28632.83, -28067.29, 40892.92, 12921.95, 4071.15, 43477.63, 0.00, -70830.38, 0.000, 0.000, 0.000, 14:54:15.769
42, 28631.87, -28041.96, 40898.19, 12926.19, 4079.73, 43663.82, 0.00, -70906.81, 0.000, 0.000, 0.000, 14:54:15.773
43, 28639.38, -28061.54, 40893.25, 12915.31, 4076.67, 43472.87, 0.00, -71025.68, 0.000, 0.000, 0.000, 14:54:15.776
44, 28634.91, -28093.28, 40890.57, 12909.99, 4065.65, 43244.41, 0.00, -71156.30, 0.020, -0.008, 1.048, 14:54:15.781
45, 28635.62, -28077.52, 40895.98, 12916.60, 4069.22, 43411.76, 0.00, -71246.72, 0.000, 0.000, 0.000, 14:54:15.785
46, 28650.35, -28046.77, 40907.63, 12926.13, 4080.82, 43653.13, 0.00, -71330.38, 0.000, 0.000, 0.000, 14:54:15.789
47, 28660.88, -28049.70, 40912.12, 12925.77, 4082.48, 43528.19, 0.00, -71425.66, 0.000, 0.000, 0.000, 14:54:15.793
48, 28642.75, -28078.75, 40897.95, 12914.73, 4075.86, 43264.21, 0.00, -71545.79, 0.000, 0.000, 0.000, 14:54:15.797
49, 28622.44, -28079.06, 40883.80, 12904.73, 4067.41, 43350.52, 0.00, -71650.28, 0.000, 0.000, 0.000, 14:54:15.800
50, 28621.23, -28038.65, 40893.32, 12919.84, 4078.10, 43627.41, 0.00, -71720.09, 0.000, 0.000, 0.000, 14:54:15.806
51, 28624.85, -28031.72, 40896.34, 12925.32, 4083.66, 43561.74, 0.00, -71825.25, 0.000, 0.000, 0.000, 14:54:15.809
52, 28619.51, -28068.29, 40880.47, 12903.01, 4066.23, 43278.72, 0.00, -71951.65, 0.000, 0.000, 0.000, 14:54:15.811
53, 28615.46, -28070.57, 40873.11, 12901.25, 4065.13, 43303.87, 0.00, -72037.70, 0.000, 0.000, 0.000, 14:54:15.816
54, 28614.17, -28030.99, 40881.12, 12918.79, 4082.95, 43600.70, 0.00, -72096.55, 0.022, -0.014, 1.046, 14:54:15.821
55, 28615.66, -28023.25, 40879.02, 12915.13, 4087.82, 43593.41, 0.00, -72196.27, 0.000, 0.000, 0.000, 14:54:15.825
56, 28618.59, -28048.33, 40870.10, 12904.82, 4083.91, 43312.94, 0.00, -72335.34, 0.000, 0.000, 0.000, 14:54:15.829
57, 28620.78, -28058.63, 40871.84, 12903.01, 4081.76, 43274.50, 0.00, -72417.91, 0.000, 0.000, 0.000, 14:54:15.833
58, 28624.94, -28023.79, 40883.71, 12914.93, 4095.60, 43564.49, 0.00, -72470.66, 0.000, 0.000, 0.000, 14:54:15.836
59, 28622.48, -28015.56, 40885.45, 12914.73, 4095.33, 43627.43, 0.00, -72571.17, 0.000, 0.000, 0.000, 14:54:15.842
60, 28622.06, -28046.95, 40875.77, 12902.30, 4082.30, 43366.65, 0.00, -72695.05, 0.000, 0.000, 0.000, 14:54:15.845
61, 28618.46, -28064.45, 40872.42, 12902.05, 4076.27, 43248.66, 0.00, -72795.36, 0.000, 0.000, 0.000, 14:54:15.849
62, 28617.59, -28041.29, 40875.33, 12912.56, 4080.20, 43511.47, 0.00, -72858.41, 0.000, 0.000, 0.000, 14:54:15.853
63, 28621.68, -28019.74, 40877.29, 12917.39, 4087.42, 43643.66, 0.00, -72945.30, 0.000, 0.000, 0.000, 14:54:15.857
64, 28623.96, -28042.97, 40874.70, 12909.72, 4080.60, 43413.30, 0.00, -73080.41, 0.022, -0.016, 1.048, 14:54:15.863
65, 28618.21, -28075.24, 40866.68, 12903.68, 4066.30, 43234.91, 0.00, -73182.65, 0.000, 0.000, 0.000, 14:54:15.866
66, 28617.92, -28055.91, 40870.90, 12917.72, 4074.30, 43451.75, 0.00, -73250.80, 0.000, 0.000, 0.000, 14:54:15.869
67, 28626.95, -28025.82, 40880.09, 12929.63, 4087.84, 43655.28, 0.00, -73315.30, 0.000, 0.000, 0.000, 14:54:15.873
68, 28625.52, -28047.75, 40874.10, 12918.64, 4078.70, 43474.45, 0.00, -73411.82, 0.000, 0.000, 0.000, 14:54:15.877
69, 28622.75, -28080.07, 40867.66, 12910.72, 4066.30, 43233.75, 0.00, -73539.52, 0.000, 0.000, 0.000, 14:54:15.881
70, 28620.36, -28064.98, 40870.03, 12917.32, 4069.51, 43393.70, 0.00, -73612.00, 0.000, 0.000, 0.000, 14:54:15.884
71, 28623.55, -28028.73, 40878.63, 12927.20, 4081.99, 43641.51, 0.00, -73679.77, 0.000, 0.000, 0.000, 14:54:15.889
72, 28625.25, -28034.81, 40877.05, 12920.89, 4080.60, 43523.79, 0.00, -73768.96, 0.000, 0.000, 0.000, 14:54:15.893
73, 28623.82, -28068.80, 40864.08, 12909.67, 4067.95, 43256.84, 0.00, -73868.11, 0.000, 0.000, 0.000, 14:54:15.895
74, 28623.80, -28064.56, 40862.30, 12915.35, 4070.52, 43338.29, 0.00, -73962.91, 0.018, -0.016, 1.046, 14:54:15.900
75, 28629.07, -28030.81, 40871.55, 12929.25, 4082.86, 43621.91, 0.00, -74020.48, 0.000, 0.000, 0.000, 14:54:15.905
76, 28635.27, -28029.85, 40871.23, 12926.26, 4084.31, 43561.74, 0.00, -74125.24, 0.000, 0.000, 0.000, 14:54:15.909
77, 28629.57, -28065.61, 40857.49, 12907.44, 4069.09, 43283.01, 0.00, -74249.41, 0.000, 0.000, 0.000, 14:54:15.912
78, 28622.64, -28077.30, 40850.27, 12901.54, 4062.12, 43295.68, 0.00, -74322.38, 0.000, 0.000, 0.000, 14:54:15.918
79, 28625.16, -28043.88, 40858.09, 12910.12, 4071.35, 43580.38, 0.00, -74384.88, 0.000, 0.000, 0.000, 14:54:15.920
80, 28635.60, -28033.60, 40866.14, 12915.02, 4076.53, 43585.32, 0.00, -74492.98, 0.000, 0.000, 0.000, 14:54:15.924
81, 28632.83, -28061.90, 40856.51, 12905.05, 4068.75, 43316.85, 0.00, -74610.26, 0.000, 0.000, 0.000, 14:54:15.928
82, 28625.79, -28078.51, 40852.33, 12901.72, 4064.15, 43250.45, 0.00, -74703.08, 0.000, 0.000, 0.000, 14:54:15.933
83, 28628.56, -28050.25, 40862.36, 12917.32, 4075.62, 43527.81, 0.00, -74781.98, 0.000, 0.000, 0.000, 14:54:15.937
84, 28632.76, -28034.38, 40868.51, 12922.95, 4082.77, 43613.35, 0.00, -74869.84, 0.018, -0.020, 1.048, 14:54:15.941
85, 28631.13, -28061.34, 40857.40, 12906.28, 4071.64, 43364.13, 0.00, -74970.63, 0.000, 0.000, 0.000, 14:54:15.944
86, 28628.52, -28081.23, 40855.81, 12898.19, 4064.66, 43226.04, 0.00, -75066.66, 0.000, 0.000, 0.000, 14:54:15.950
87, 28623.87, -28054.50, 40858.07, 12908.22, 4072.69, 43480.64, 0.00, -75130.49, 0.000, 0.000, 0.000, 14:54:15.952
88, 28630.01, -28025.98, 40858.23, 12911.15, 4082.19, 43622.87, 0.00, -75221.44, 0.000, 0.000, 0.000, 14:54:15.956
89, 28634.44, -28048.69, 40852.93, 12896.42, 4074.68, 43413.32, 0.00, -75322.02, 0.000, 0.000, 0.000, 14:54:15.961
90, 28627.09, -28077.41, 40847.45, 12890.88, 4068.96, 43217.72, 0.00, -75424.04, 0.000, 0.000, 0.000, 14:54:15.965
91, 28625.23, -28056.18, 40854.81, 12901.83, 4078.05, 43425.26, 0.00, -75504.21, 0.000, 0.000, 0.000, 14:54:15.969
92, 28630.75, -28024.79, 40866.72, 12915.08, 4091.49, 43643.03, 0.00, -75547.80, 0.000, 0.000, 0.000, 14:54:15.973
93, 28639.15, -28038.72, 40861.20, 12910.03, 4088.45, 43469.80, 0.00, -75649.88, 0.000, 0.000, 0.000, 14:54:15.977
94, 28635.60, -28073.05, 40849.38, 12895.97, 4073.74, 43225.68, 0.00, -75783.56, 0.016, -0.022, 1.048, 14:54:15.980
95, 28629.97, -28065.03, 40850.65, 12900.85, 4074.19, 43379.79, 0.00, -75843.65, 0.000, 0.000, 0.000, 14:54:15.984
96, 28633.37, -28027.23, 40859.84, 12912.89, 4088.56, 43628.84, 0.00, -75909.96, 0.000, 0.000, 0.000, 14:54:15.989
97, 28631.04, -28030.38, 40854.94, 12906.90, 4085.63, 43522.06, 0.00, -75999.05, 0.000, 0.000, 0.000, 14:54:15.993
98, 28634.21, -28065.43, 40846.34, 12895.70, 4075.10, 43249.86, 0.00, -76119.40, 0.000, 0.000, 0.000, 14:54:15.997
99, 28633.01, -28062.95, 40853.24, 12905.38, 4077.83, 43318.86, 0.00, -76229.59, 0.000, 0.000, 0.000, 14:54:16.001
100, 28636.61, -28027.21, 40863.97, 12920.16, 4092.43, 43603.29, 0.00, -76311.58, 0.000, 0.000, 0.000, 14:54:16.004
101, 28636.56, -28025.87, 40862.18, 12916.29, 4091.64, 43563.91, 0.00, -76405.01, 0.000, 0.000, 0.000, 14:54:16.008
102, 28630.73, -28057.00, 40851.95, 12900.78, 4079.53, 43283.17, 0.00, -76528.98, 0.000, 0.000, 0.000, 14:54:16.012
103, 28624.45, -28063.33, 40848.21, 12896.24, 4075.35, 43280.20, 0.00, -76624.44, 0.000, 0.000, 0.000, 14:54:16.016
104, 28627.31, -28031.84, 40857.11, 12909.36, 4083.33, 43575.08, 0.00, -76682.62, 0.000, 0.000, 0.000, 14:54:16.021
105, 28632.25, -28020.10, 40858.72, 12914.90, 4087.71, 43610.55, 0.00, -76747.51, 0.012, -0.016, 1.044, 14:54:16.026
106, 28627.51, -28050.37, 40847.05, 12902.79, 4078.84, 43334.42, 0.00, -76859.13, 0.000, 0.000, 0.000, 14:54:16.030
107, 28624.04, -28068.87, 40847.70, 12898.34, 4072.76, 43250.73, 0.00, -76976.90, 0.000, 0.000, 0.000, 14:54:16.033
108, 28621.79, -28038.92, 40855.77, 12907.95, 4079.98, 43537.26, 0.00, -77027.73, 0.000, 0.000, 0.000, 14:54:16.035
109, 28625.92, -28018.80, 40862.36, 12912.31, 4087.75, 43629.24, 0.00, -77106.14, 0.000, 0.000, 0.000, 14:54:16.040
110, 28625.63, -28043.91, 40859.55, 12907.60, 4080.36, 43380.98, 0.00, -77228.16, 0.000, 0.000, 0.000, 14:54:16.044
111, 28618.35, -28069.86, 40853.09, 12901.67, 4066.45, 43238.66, 0.00, -77318.34, 0.000, 0.000, 0.000, 14:54:16.049
112, 28617.74, -28043.64, 40862.03, 12916.60, 4075.35, 43487.84, 0.00, -77373.00, 0.000, 0.000, 0.000, 14:54:16.053
113, 28624.49, -28020.46, 40867.46, 12924.36, 4085.74, 43651.48, 0.00, -77434.17, 0.000, 0.000, 0.000, 14:54:16.057
114, 28625.48, -28041.29, 40859.61, 12911.64, 4077.49, 43438.18, 0.00, -77537.77, 0.000, 0.000, 0.000, 14:54:16.060
115, 28624.31, -28069.54, 40854.63, 12903.95, 4070.36, 43235.16, 0.00, -77643.85, 0.016, -0.018, 1.042, 14:54:16.064
116, 28620.58, -28058.17, 40859.05, 12908.24, 4073.23, 43428.68, 0.00, -77723.18, 0.000, 0.000, 0.000, 14:54:16.068
117, 28622.03, -28031.99, 40865.20, 12915.15, 4080.56, 43644.82, 0.00, -77787.31, 0.000, 0.000, 0.000, 14:54:16.073
118, 28621.81, -28042.01, 40861.56, 12907.75, 4075.53, 43482.32, 0.00, -77892.09, 0.000, 0.000, 0.000, 14:54:16.078
119, 28615.22, -28070.06, 40852.35, 12902.12, 4064.64, 43234.17, 0.00, -78011.59, 0.000, 0.000, 0.000, 14:54:16.082
120, 28618.23, -28058.01, 40855.66, 12910.50, 4071.35, 43377.67, 0.00, -78083.60, 0.000, 0.000, 0.000, 14:54:16.084
121, 28623.04, -28026.40, 40859.68, 12920.13, 4083.53, 43637.27, 0.00, -78141.80, 0.000, 0.000, 0.000, 14:54:16.088
122, 28628.81, -28032.08, 40854.27, 12914.73, 4084.62, 43531.94, 0.00, -78240.71, 0.000, 0.000, 0.000, 14:54:16.093
123, 28626.32, -28064.31, 40845.11, 12902.12, 4072.91, 43260.26, 0.00, -78360.14, 0.000, 0.000, 0.000, 14:54:16.096
124, 28625.34, -28066.01, 40848.01, 12904.94, 4071.79, 43322.24, 0.00, -78440.12, 0.000, 0.000, 0.000, 14:54:16.101
125, 28626.73, -28031.03, 40856.82, 12918.26, 4083.33, 43613.06, 0.00, -78489.13, 0.018, -0.020, 1.036, 14:54:16.104
126, 28629.05, -28027.30, 40854.18, 12916.36, 4084.60, 43573.79, 0.00, -78585.63, 0.000, 0.000, 0.000, 14:54:16.109
127, 28629.14, -28057.16, 40844.97, 12903.64, 4076.11, 43299.71, 0.00, -78695.55, 0.000, 0.000, 0.000, 14:54:16.112
128, 28628.58, -28063.66, 40846.74, 12905.25, 4077.90, 43287.41, 0.00, -78780.33, 0.000, 0.000, 0.000, 14:54:16.117
129, 28628.74, -28033.47, 40858.43, 12918.59, 4089.72, 43571.26, 0.00, -78861.80, 0.000, 0.000, 0.000, 14:54:16.120
130, 28629.41, -28025.60, 40862.79, 12917.45, 4093.27, 43605.50, 0.00, -78954.34, 0.000, 0.000, 0.000, 14:54:16.124
131, 28630.91, -28053.36, 40854.27, 12908.60, 4084.40, 43338.02, 0.00, -79065.59, 0.000, 0.000, 0.000, 14:54:16.128
132, 28630.97, -28067.11, 40849.69, 12907.22, 4081.16, 43254.04, 0.00, -79154.77, 0.000, 0.000, 0.000, 14:54:16.132
133, 28631.09, -28039.01, 40859.59, 12920.02, 4090.17, 43529.80, 0.00, -79205.84, 0.000, 0.000, 0.000, 14:54:16.137
134, 28639.11, -28020.06, 40867.30, 12927.06, 4097.77, 43632.41, 0.00, -79285.44, 0.000, 0.000, 0.000, 14:54:16.140
135, 28635.47, -28045.54, 40856.17, 12913.88, 4090.66, 43391.29, 0.00, -79388.68, 0.016, -0.014, 1.038, 14:54:16.144
136, 28630.13, -28068.13, 40850.43, 12905.96, 4085.50, 43237.57, 0.00, -79487.36, 0.000, 0.000, 0.000, 14:54:16.148
137, 28631.00, -28044.78, 40858.14, 12920.16, 4092.51, 43481.94, 0.00, -79550.03, 0.000, 0.000, 0.000, 14:54:16.152
138, 28632.25, -28019.86, 40860.75, 12929.23, 4101.59, 43646.83, 0.00, -79625.98, 0.000, 0.000, 0.000, 14:54:16.156
139, 28634.66, -28043.57, 40852.53, 12914.59, 4094.26, 43440.12, 0.00, -79744.80, 0.000, 0.000, 0.000, 14:54:16.160
140, 28635.00, -28076.36, 40843.63, 12900.02, 4080.67, 43230.20, 0.00, -79846.46, 0.000, 0.000, 0.000, 14:54:16.166
141, 28634.21, -28062.44, 40845.51, 12902.21, 4081.34, 43417.79, 0.00, -79905.31, 0.000, 0.000, 0.000, 14:54:16.168
142, 28645.86, -28034.83, 40852.57, 12908.09, 4093.70, 43638.70, 0.00, -79963.72, 0.000, 0.000, 0.000, 14:54:16.172
143, 28644.23, -28041.40, 40850.47, 12910.55, 4098.28, 43494.79, 0.00, -80051.97, 0.000, 0.000, 0.000, 14:54:16.177
144, 28631.76, -28071.15, 40844.77, 12906.14, 4092.31, 43244.66, 0.00, -80164.91, 0.000, 0.000, 0.000, 14:54:16.181
145, 28626.32, -28068.92, 40848.23, 12909.50, 4090.12, 43360.68, 0.00, -80261.24, 0.020, -0.012, 1.042, 14:54:16.185
146, 28635.67, -28034.09, 40859.34, 12924.45, 4104.12, 43627.41, 0.00, -80328.32, 0.000, 0.000, 0.000, 14:54:16.188
147, 28640.25, -28034.90, 40863.32, 12925.59, 4108.99, 43543.90, 0.00, -80418.83, 0.000, 0.000, 0.000, 14:54:16.192
148, 28638.75, -28073.81, 40853.58, 12908.27, 4092.63, 43274.07, 0.00, -80517.26, 0.000, 0.000, 0.000, 14:54:16.196
149, 28636.34, -28072.38, 40857.67, 12912.74, 4095.17, 43320.68, 0.00, -80596.32, 0.000, 0.000, 0.000, 14:54:16.200
150, 28643.25, -28036.57, 40876.13, 12932.43, 4110.96, 43609.57, 0.00, -80670.37, 0.000, 0.000, 0.000, 14:54:16.206
151, 28648.21, -28033.94, 40878.63, 12928.67, 4107.87, 43595.94, 0.00, -80748.60, 0.000, 0.000, 0.000, 14:54:16.208
152, 28645.75, -28067.13, 40867.88, 12913.79, 4092.43, 43319.31, 0.00, -80846.93, 0.000, 0.000, 0.000, 14:54:16.212
153, 28639.09, -28078.55, 40863.82, 12909.74, 4084.20, 43290.32, 0.00, -80927.28, 0.000, 0.000, 0.000, 14:54:16.216
154, 28643.63, -28044.44, 40874.05, 12924.69, 4098.15, 43573.79, 0.00, -80991.86, 0.000, 0.000, 0.000, 14:54:16.220
155, 28645.01, -28029.02, 40875.66, 12928.94, 4105.10, 43627.96, 0.00, -81066.24, 0.020, -0.016, 1.046, 14:54:16.224
156, 28643.18, -28060.47, 40863.95, 12912.47, 4092.13, 43360.17, 0.00, -81171.36, 0.000, 0.000, 0.000, 14:54:16.228
157, 28640.61, -28077.32, 40860.30, 12909.00, 4085.50, 43256.86, 0.00, -81266.91, 0.000, 0.000, 0.000, 14:54:16.233
158, 28642.11, -28048.26, 40871.08, 12921.90, 4095.64, 43527.85, 0.00, -81330.89, 0.000, 0.000, 0.000, 14:54:16.236
159, 28644.70, -28032.71, 40870.14, 12925.12, 4102.35, 43639.41, 0.00, -81422.26, 0.000, 0.000, 0.000, 14:54:16.240
160, 28651.67, -28057.76, 40861.40, 12915.33, 4097.21, 43406.33, 0.00, -81538.09, 0.000, 0.000, 0.000, 14:54:16.244
161, 28644.56, -28082.28, 40856.48, 12905.70, 4084.36, 43245.86, 0.00, -81629.04, 0.000, 0.000, 0.000, 14:54:16.248
162, 28638.62, -28065.16, 40858.63, 12909.03, 4082.30, 43473.80, 0.00, -81688.34, 0.000, 0.000, 0.000, 14:54:16.253
163, 28643.65, -28041.51, 40864.96, 12914.41, 4089.01, 43646.70, 0.00, -81763.51, 0.000, 0.000, 0.000, 14:54:16.256
164, 28644.27, -28058.30, 40858.38, 12906.14, 4083.95, 43450.85, 0.00, -81882.51, 0.000, 0.000, 0.000, 14:54:16.260
165, 28639.02, -28090.49, 40847.34, 12893.33, 4070.45, 43239.47, 0.00, -81973.37, 0.018, -0.016, 1.040, 14:54:16.266
166, 28641.50, -28073.30, 40855.30, 12902.05, 4077.87, 43414.04, 0.00, -82039.64, 0.000, 0.000, 0.000, 14:54:16.268
167, 28647.02, -28041.74, 40861.65, 12909.61, 4088.87, 43644.08, 0.00, -82107.97, 0.000, 0.000, 0.000, 14:54:16.272
168, 28647.74, -28049.90, 40859.39, 12904.02, 4086.30, 43504.56, 0.00, -82203.25, 0.000, 0.000, 0.000, 14:54:16.277
169, 28642.73, -28080.00, 40850.47, 12894.36, 4075.57, 43249.39, 0.00, -82309.85, 0.000, 0.000, 0.000, 14:54:16.280
170, 28637.52, -28075.51, 40850.92, 12895.75, 4075.10, 43362.52, 0.00, -82380.84, 0.000, 0.000, 0.000, 14:54:16.284
171, 28642.31, -28041.07, 40860.29, 12907.86, 4088.22, 43636.46, 0.00, -82429.63, 0.000, 0.000, 0.000, 14:54:16.289
172, 28644.18, -28046.01, 40857.71, 12902.70, 4085.25, 43546.98, 0.00, -82536.32, 0.000, 0.000, 0.000, 14:54:16.293
173, 28643.09, -28079.49, 40850.49, 12894.23, 4075.42, 43274.94, 0.00, -82659.63, 0.000, 0.000, 0.000, 14:54:16.295
174, 28641.95, -28082.04, 40852.71, 12895.37, 4075.04, 43316.85, 0.00, -82731.13, 0.000, 0.000, 0.000, 14:54:16.300
175, 28640.21, -28050.57, 40860.39, 12903.21, 4082.70, 43598.11, 0.00, -82793.85, 0.018, -0.016, 1.040, 14:54:16.305
176, 28641.17, -28044.11, 40860.06, 12902.28, 4085.56, 43590.39, 0.00, -82870.54, 0.000, 0.000, 0.000, 14:54:16.309
177, 28642.62, -28076.45, 40852.21, 12889.60, 4076.35, 43319.18, 0.00, -82964.11, 0.000, 0.000, 0.000, 14:54:16.312
178, 28636.34, -28092.07, 40849.36, 12886.14, 4070.57, 43271.03, 0.00, -83071.89, 0.000, 0.000, 0.000, 14:54:16.316
179, 28634.35, -28061.29, 40857.49, 12899.37, 4080.36, 43564.98, 0.00, -83122.65, 0.000, 0.000, 0.000, 14:54:16.321
180, 28636.56, -28044.35, 40859.73, 12904.29, 4087.69, 43621.06, 0.00, -83199.70, 0.000, 0.000, 0.000, 14:54:16.325
181, 28637.14, -28075.89, 40853.45, 12891.46, 4075.59, 43358.49, 0.00, -83305.09, 0.000, 0.000, 0.000, 14:54:16.329
0, 28626.57, -28011.23, 40860.17, 12903.01, 4073.36, 43913.93, 0.00, 0.00, 0.024, -0.010, 1.022, 14:54:16.357
1, 28629.90, -28028.68, 40856.04, 12896.49, 4073.49, 43691.82, 0.00, 0.00, 0.000, 0.000, 0.000, 14:54:16.360
2, 28625.56, -28065.68, 40849.33, 12886.72, 4062.32, 43398.01, 0.00, 0.00, 0.000, 0.000, 0.000, 14:54:16.363
3, 28623.78, -28056.56, 40855.75, 12893.40, 4065.09, 43510.20, 0.00, 0.00, 0.000, 0.000, 0.000, 14:54:16.367
4, 28624.80, -28028.21, 40865.22, 12903.59, 4069.47, 43750.03, 0.00, 0.00, 0.000, 0.000, 0.000, 14:54:16.372
5, 28632.63, -28036.78, 40861.42, 12896.71, 4066.74, 43622.16, 0.00, 0.00, 0.000, 0.000, 0.000, 14:54:16.376
6, 28631.20, -28069.34, 40852.91, 12889.07, 4059.03, 43348.32, 0.00, 0.00, 0.000, 0.000, 0.000, 14:54:16.380
7, 28625.59, -28068.72, 40856.11, 12896.91, 4058.94, 43400.16, 0.00, 0.00, 0.022, -0.016, 1.036, 14:54:16.384
8, 28629.61, -28038.29, 40867.35, 12907.77, 4070.45, 43666.72, 0.00, 0.00, 0.000, 0.000, 0.000, 14:54:16.388
9, 28631.27, -28036.28, 40871.26, 12902.72, 4071.48, 43622.07, 0.00, 0.00, 0.000, 0.000, 0.000, 14:54:16.392
10, 28630.59, -28067.67, 40866.88, 12892.24, 4061.62, 43343.34, 0.00, 0.00, 0.000, 0.000, 0.000, 14:54:16.395
11, 28625.92, -28079.76, 40863.30, 12889.16, 4054.34, 43324.52, 0.00, 0.00, 0.000, 0.000, 0.000, 14:54:16.400
12, 28627.17, -28049.56, 40875.46, 12905.36, 4064.02, 43611.34, 0.00, 0.00, 0.000, 0.000, 0.000, 14:54:16.404
13, 28633.28, -28038.29, 40879.35, 12909.79, 4069.60, 43651.35, 0.00, 0.00, 0.000, 0.000, 0.000, 14:54:16.408
14, 28634.10, -28068.89, 40864.69, 12897.27, 4060.37, 43373.78, 0.00, 0.00, 0.000, 0.000, 0.000, 14:54:16.412
15, 28630.53, -28087.09, 40859.08, 12891.12, 4056.37, 43289.14, 0.00, 0.00, 0.000, 0.000, 0.000, 14:54:16.416
16, 28630.73, -28057.43, 40867.95, 12901.36, 4067.93, 43564.29, 0.00, 0.00, 0.000, 0.000, 0.000, 14:54:16.419
17, 28638.60, -28034.36, 40876.80, 12911.69, 4082.48, 43663.30, 0.00, 0.00, 0.022, -0.018, 1.040, 14:54:16.423
18, 28639.47, -28059.80, 40871.53, 12901.49, 4078.17, 43414.20, 0.00, 0.00, 0.000, 0.000, 0.000, 14:54:16.428
19, 28630.75, -28085.97, 40864.82, 12890.50, 4067.73, 43266.18, 0.00, 0.00, 0.000, 0.000, 0.000, 14:54:16.433
20, 28627.44, -28060.67, 40870.81, 12902.07, 4076.27, 43507.31, 0.00, 0.00, 0.000, 0.000, 0.000, 14:54:16.438
21, 28639.87, -28031.79, 40879.04, 12915.40, 4089.97, 43673.07, 0.00, 0.00, 0.000, 0.000, 0.000, 14:54:16.441
22, 28642.11, -28052.76, 40878.34, 12908.49, 4083.53, 43466.74, 0.00, 0.00, 0.000, 0.000, 0.000, 14:54:16.443
23, 28636.03, -28081.32, 40874.21, 12900.35, 4073.69, 43254.16, 0.00, 0.00, 0.000, 0.000, 0.000, 14:54:16.448
24, 28633.63, -28065.77, 40882.03, 12909.94, 4077.74, 43449.24, 0.00, 0.00, 0.000, 0.000, 0.000, 14:54:16.452
25, 28641.57, -28036.93, 40891.60, 12918.73, 4085.61, 43670.03, 0.00, 0.00, 0.000, 0.000, 0.000, 14:54:16.456
26, 28644.90, -28048.67, 40891.46, 12915.04, 4083.60, 43514.46, 0.00, 0.00, 0.000, 0.000, 0.000, 14:54:16.461
27, 28640.27, -28083.24, 40882.93, 12903.95, 4073.63, 43272.39, 0.00, 0.00, 0.020, -0.018, 1.040, 14:54:16.463
28, 28635.69, -28079.33, 40884.63, 12906.63, 4074.79, 43401.66, 0.00, 0.00, 0.000, 0.000, 0.000, 14:54:16.468
29, 28637.30, -28042.27, 40895.36, 12921.41, 4090.68, 43670.73, 0.00, 0.00, 0.000, 0.000, 0.000, 14:54:16.472
30, 28639.11, -28047.13, 40889.59, 12913.09, 4087.08, 43572.45, 0.00, 0.00, 0.000, 0.000, 0.000, 14:54:16.475
31, 28632.76, -28084.00, 40877.16, 12898.57, 4069.56, 43295.46, 0.00, 0.00, 0.000, 0.000, 0.000, 14:54:16.479
32, 28630.57, -28081.86, 40880.27, 12901.99, 4067.12, 43347.81, 0.00, 0.00, 0.000, 0.000, 0.000, 14:54:16.484
33, 28634.44, -28046.52, 40887.91, 12912.78, 4077.03, 43624.66, 0.00, 0.00, 0.000, 0.000, 0.000, 14:54:16.488
34, 28633.54, -28044.04, 40884.34, 12912.40, 4079.08, 43597.90, 0.00, 0.00, 0.000, 0.000, 0.000, 14:54:16.492
35, 28630.82, -28077.63, 40873.96, 12898.68, 4069.11, 43315.46, 0.00, 0.00, 0.000, 0.000, 0.000, 14:54:16.496
36, 28625.34, -28086.04, 40875.41, 12896.42, 4066.65, 43295.15, 0.00, 0.00, 0.000, 0.000, 0.000, 14:54:16.500
37, 28625.83, -28052.20, 40887.69, 12910.14, 4075.75, 43587.26, 0.00, 0.00, 0.020, -0.016, 1.040, 14:54:16.503
38, 28628.81, -28038.77, 40893.54, 12912.33, 4080.20, 43633.82, 0.00, 0.00, 0.000, 0.000, 0.000, 14:54:16.507
39, 28623.84, -28070.15, 40886.01, 12896.42, 4070.10, 43369.78, 0.00, 0.00, 0.000, 0.000, 0.000, 14:54:16.512
40, 28620.20, -28089.19, 40881.38, 12891.66, 4062.43, 43275.41, 0.00, 0.00, 0.000, 0.000, 0.000, 14:54:16.516
41, 28631.76, -28053.20, 40892.14, 12913.12, 4078.66, 43549.00, 0.00, 0.00, 0.000, 0.000, 0.000, 14:54:16.520
42, 28638.13, -28029.91, 40896.80, 12920.34, 4089.68, 43664.45, 0.00, 0.00, 0.000, 0.000, 0.000, 14:54:16.524
43, 28638.04, -28057.25, 40889.12, 12907.08, 4080.71, 43419.67, 0.00, 0.00, 0.000, 0.000, 0.000, 14:54:16.528
44, 28633.03, -28082.87, 40883.24, 12901.90, 4073.27, 43257.91, 0.00, 0.00, 0.000, 0.000, 0.000, 14:54:16.531
45, 28633.32, -28056.36, 40889.68, 12915.20, 4084.98, 43500.18, 0.00, 0.00, 0.000, 0.000, 0.000, 14:54:16.535
46, 28636.25, -28027.46, 40894.79, 12921.88, 4092.85, 43681.59, 0.00, 0.00, 0.000, 0.000, 0.000, 14:54:16.540
47, 28636.85, -28048.02, 40887.46, 12908.87, 4083.08, 43475.01, 0.00, 0.00, 0.016, -0.020, 1.044, 14:54:16.544
48, 28631.53, -28079.42, 40874.84, 12898.12, 4068.15, 43252.97, 0.00, 0.00, 0.000, 0.000, 0.000, 14:54:16.547
49, 28628.36, -28063.40, 40882.52, 12906.25, 4070.14, 43440.86, 0.00, 0.00, 0.000, 0.000, 0.000, 14:54:16.551
50, 28634.08, -28032.08, 40895.22, 12919.78, 4084.00, 43672.27, 0.00, 0.00, 0.000, 0.000, 0.000, 14:54:16.556
51, 28635.51, -28040.91, 40891.89, 12919.40, 4083.40, 43531.74, 0.00, 0.00, 0.000, 0.000, 0.000, 14:54:16.560
52, 28634.21, -28072.70, 40885.21, 12909.27, 4075.15, 43275.01, 0.00, 0.00, 0.000, 0.000, 0.000, 14:54:16.563
53, 28631.09, -28065.19, 40891.24, 12913.45, 4080.40, 43390.61, 0.00, 0.00, 0.000, 0.000, 0.000, 14:54:16.568
54, 28636.85, -28029.51, 40901.59, 12924.69, 4094.82, 43658.99, 0.00, 0.00, 0.000, 0.000, 0.000, 14:54:16.572
55, 28637.97, -28031.88, 40899.98, 12921.61, 4093.79, 43579.29, 0.00, 0.00, 0.000, 0.000, 0.000, 14:54:16.576
56, 28635.40, -28067.89, 40897.19, 12909.09, 4083.42, 43301.92, 0.00, 0.00, 0.000, 0.000, 0.000, 14:54:16.579
57, 28632.16, -28073.03, 40896.23, 12907.71, 4080.04, 43336.97, 0.00, 0.00, 0.014, -0.018, 1.038, 14:54:16.584
58, 28641.10, -28039.48, 40905.66, 12919.46, 4092.96, 43626.67, 0.00, 0.00, 0.000, 0.000, 0.000, 14:54:16.587
59, 28643.00, -28036.89, 40907.89, 12916.92, 4093.14, 43614.91, 0.00, 0.00, 0.000, 0.000, 0.000, 14:54:16.592
60, 28638.82, -28070.73, 40899.40, 12902.81, 4079.82, 43339.65, 0.00, 0.00, 0.000, 0.000, 0.000, 14:54:16.595
61, 28632.79, -28080.63, 40895.73, 12902.05, 4076.35, 43299.08, 0.00, 0.00, 0.000, 0.000, 0.000, 14:54:16.600
62, 28633.23, -28048.20, 40904.83, 12915.64, 4084.18, 43584.07, 0.00, 0.00, 0.000, 0.000, 0.000, 14:54:16.604
63, 28634.26, -28032.86, 40908.03, 12918.01, 4088.45, 43643.52, 0.00, 0.00, 0.000, 0.000, 0.000, 14:54:16.606
64, 28631.98, -28061.94, 40902.26, 12908.60, 4081.61, 43370.21, 0.00, 0.00, 0.000, 0.000, 0.000, 14:54:16.612
65, 28625.65, -28081.77, 40898.91, 12907.26, 4076.42, 43264.23, 0.00, 0.00, 0.000, 0.000, 0.000, 14:54:16.615
66, 28631.27, -28053.61, 40907.85, 12917.88, 4085.36, 43537.24, 0.00, 0.00, 0.000, 0.000, 0.000, 14:54:16.619
67, 28636.67, -28030.54, 40914.26, 12923.42, 4093.19, 43666.32, 0.00, 0.00, 0.000, 0.000, 0.000, 14:54:16.624
68, 28636.18, -28052.73, 40907.02, 12916.04, 4087.64, 43436.32, 0.00, 0.00, 0.016, -0.014, 1.042, 14:54:16.629
69, 28631.94, -28079.62, 40896.49, 12905.25, 4078.79, 43248.37, 0.00, 0.00, 0.000, 0.000, 0.000, 14:54:16.631
70, 28627.69, -28062.08, 40898.98, 12907.19, 4083.02, 43478.48, 0.00, 0.00, 0.000, 0.000, 0.000, 14:54:16.635
71, 28631.80, -28032.98, 40904.99, 12914.77, 4094.03, 43661.20, 0.00, 0.00, 0.000, 0.000, 0.000, 14:54:16.640
72, 28633.48, -28048.44, 40900.20, 12910.52, 4090.88, 43474.54, 0.00, 0.00, 0.000, 0.000, 0.000, 14:54:16.643
73, 28629.43, -28079.09, 40892.36, 12899.06, 4082.41, 43252.55, 0.00, 0.00, 0.000, 0.000, 0.000, 14:54:16.648
74, 28628.67, -28065.01, 40897.90, 12906.39, 4086.03, 43421.37, 0.00, 0.00, 0.000, 0.000, 0.000, 14:54:16.652
75, 28635.71, -28032.06, 40910.48, 12919.55, 4098.06, 43656.20, 0.00, 0.00, 0.000, 0.000, 0.000, 14:54:16.656
76, 28634.42, -28042.59, 40900.36, 12909.79, 4092.07, 43517.64, 0.00, 0.00, 0.000, 0.000, 0.000, 14:54:16.659
77, 28636.34, -28075.15, 40888.83, 12898.61, 4083.82, 43261.84, 0.00, 0.00, 0.000, 0.000, 0.000, 14:54:16.663
78, 28637.30, -28069.83, 40894.84, 12905.54, 4091.40, 43363.23, 0.00, 0.00, 0.020, -0.012, 1.040, 14:54:16.667
79, 28636.45, -28035.39, 40905.97, 12918.64, 4104.36, 43641.06, 0.00, 0.00, 0.000, 0.000, 0.000, 14:54:16.672
80, 28639.11, -28035.12, 40904.45, 12916.38, 4107.16, 43573.18, 0.00, 0.00, 0.000, 0.000, 0.000, 14:54:16.676
81, 28636.21, -28069.12, 40892.27, 12902.90, 4096.63, 43292.38, 0.00, 0.00, 0.000, 0.000, 0.000, 14:54:16.679
82, 28632.70, -28072.43, 40894.37, 12906.52, 4096.43, 43317.93, 0.00, 0.00, 0.000, 0.000, 0.000, 14:54:16.683
83, 28634.06, -28038.16, 40904.45, 12919.82, 4104.36, 43613.30, 0.00, 0.00, 0.000, 0.000, 0.000, 14:54:16.687
84, 28635.73, -28030.36, 40904.05, 12919.42, 4102.84, 43609.10, 0.00, 0.00, 0.000, 0.000, 0.000, 14:54:16.691
85, 28635.29, -28061.54, 40898.66, 12909.90, 4092.63, 43329.04, 0.00, 0.00, 0.000, 0.000, 0.000, 14:54:16.695
86, 28630.46, -28077.08, 40894.82, 12907.06, 4087.44, 43282.32, 0.00, 0.00, 0.000, 0.000, 0.000, 14:54:16.701
87, 28632.81, -28047.46, 40900.88, 12918.50, 4097.70, 43567.55, 0.00, 0.00, 0.000, 0.000, 0.000, 14:54:16.704
88, 28637.68, -28034.03, 40901.55, 12917.21, 4099.85, 43630.92, 0.00, 0.00, 0.018, -0.014, 1.046, 14:54:16.708
89, 28635.78, -28062.14, 40893.01, 12903.48, 4086.88, 43371.14, 0.00, 0.00, 0.000, 0.000, 0.000, 14:54:16.712
90, 28631.64, -28082.57, 40891.24, 12896.26, 4080.24, 43249.15, 0.00, 0.00, 0.000, 0.000, 0.000, 14:54:16.715
91, 28630.30, -28052.80, 40901.70, 12907.08, 4091.26, 43516.57, 0.00, 0.00, 0.000, 0.000, 0.000, 14:54:16.719
92, 28634.84, -28029.04, 40907.71, 12915.89, 4100.40, 43645.94, 0.00, 0.00, 0.000, 0.000, 0.000, 14:54:16.724
93, 28628.38, -28051.01, 40898.68, 12907.71, 4089.21, 43420.83, 0.00, 0.00, 0.000, 0.000, 0.000, 14:54:16.727
94, 28623.80, -28077.48, 40892.00, 12900.33, 4076.69, 43238.78, 0.00, 0.00, 0.000, 0.000, 0.000, 14:54:16.732
95, 28626.06, -28061.12, 40901.10, 12910.48, 4081.92, 43459.90, 0.00, 0.00, 0.000, 0.000, 0.000, 14:54:16.736
96, 28627.51, -28034.76, 40909.70, 12919.15, 4090.15, 43654.83, 0.00, 0.00, 0.000, 0.000, 0.000, 14:54:16.739
97, 28631.60, -28048.26, 40906.80, 12911.37, 4085.97, 43472.87, 0.00, 0.00, 0.000, 0.000, 0.000, 14:54:16.743
98, 28627.71, -28081.97, 40898.95, 12898.97, 4074.03, 43235.76, 0.00, 0.00, 0.016, -0.016, 1.044, 14:54:16.747
99, 28627.29, -28074.19, 40906.11, 12905.92, 4075.93, 43403.55, 0.00, 0.00, 0.000, 0.000, 0.000, 14:54:16.751
100, 28639.74, -28049.79, 40914.71, 12909.72, 4082.75, 43649.85, 0.00, 0.00, 0.000, 0.000, 0.000, 14:54:16.756
101, 28636.92, -28056.71, 40907.74, 12899.93, 4081.00, 43523.49, 0.00, 0.00, 0.000, 0.000, 0.000, 14:54:16.760
102, 28628.81, -28080.79, 40899.31, 12902.14, 4081.50, 43264.75, 0.00, 0.00, 0.000, 0.000, 0.000, 14:54:16.764
103, 28623.98, -28076.94, 40895.40, 12904.58, 4079.13, 43359.68, 0.00, 0.00, 0.000, 0.000, 0.000, 14:54:16.767
104, 28622.95, -28042.79, 40898.89, 12910.32, 4084.62, 43628.48, 0.00, 0.00, 0.000, 0.000, 0.000, 14:54:16.771
105, 28615.82, -28039.14, 40894.91, 12908.49, 4085.25, 43573.72, 0.00, 0.00, 0.000, 0.000, 0.000, 14:54:16.775
106, 28612.09, -28069.21, 40882.59, 12897.92, 4077.41, 43291.84, 0.00, 0.00, 0.000, 0.000, 0.000, 14:54:16.779
107, 28604.06, -28070.75, 40878.52, 12903.30, 4075.97, 43305.65, 0.00, 0.00, 0.000, 0.000, 0.000, 14:54:16.784
108, 28605.38, -28037.18, 40885.45, 12915.87, 4084.58, 43594.68, 0.00, 0.00, 0.016, -0.018, 1.042, 14:54:16.788
109, 28610.01, -28026.96, 40883.44, 12915.93, 4090.53, 43602.57, 0.00, 0.00, 0.000, 0.000, 0.000, 14:54:16.792
110, 28602.30, -28057.27, 40871.66, 12901.58, 4082.61, 43330.51, 0.00, 0.00, 0.000, 0.000, 0.000, 14:54:16.795
111, 28609.43, -28069.48, 40870.97, 12896.35, 4083.19, 43264.19, 0.00, 0.00, 0.000, 0.000, 0.000, 14:54:16.798
112, 28612.04, -28036.35, 40878.50, 12908.49, 4097.03, 43550.61, 0.00, 0.00, 0.000, 0.000, 0.000, 14:54:16.803
113, 28611.97, -28021.64, 40880.42, 12911.51, 4098.33, 43630.36, 0.00, 0.00, 0.000, 0.000, 0.000, 14:54:16.807
114, 28609.18, -28052.69, 40874.61, 12899.93, 4082.19, 43367.41, 0.00, 0.00, 0.000, 0.000, 0.000, 14:54:16.812
115, 28603.59, -28074.28, 40870.92, 12895.26, 4070.45, 43236.95, 0.00, 0.00, 0.000, 0.000, 0.000, 14:54:16.815
116, 28604.29, -28047.95, 40879.21, 12907.46, 4077.05, 43493.57, 0.00, 0.00, 0.000, 0.000, 0.000, 14:54:16.819
117, 28611.30, -28021.31, 40888.49, 12917.54, 4088.60, 43642.99, 0.00, 0.00, 0.000, 0.000, 0.000, 14:54:16.823
118, 28610.30, -28042.95, 40880.54, 12907.51, 4082.43, 43417.39, 0.00, 0.00, 0.018, -0.010, 1.036, 14:54:16.827
119, 28607.08, -28070.44, 40873.49, 12898.86, 4075.62, 43225.95, 0.00, 0.00, 0.000, 0.000, 0.000, 14:54:16.830
120, 28610.21, -28050.90, 40879.48, 12907.24, 4083.95, 43443.77, 0.00, 0.00, 0.000, 0.000, 0.000, 14:54:16.835
121, 28618.35, -28019.88, 40884.20, 12916.67, 4097.07, 43648.20, 0.00, 0.00, 0.000, 0.000, 0.000, 14:54:16.839
122, 28623.38, -28032.21, 40883.29, 12911.55, 4094.79, 43469.36, 0.00, 0.00, 0.000, 0.000, 0.000, 14:54:16.845
123, 28612.42, -28068.02, 40866.83, 12895.46, 4075.80, 43228.79, 0.00, 0.00, 0.000, 0.000, 0.000, 14:54:16.849
124, 28603.48, -28061.97, 40862.65, 12896.87, 4070.43, 43377.76, 0.00, 0.00, 0.000, 0.000, 0.000, 14:54:16.852
125, 28606.28, -28028.48, 40873.38, 12910.79, 4079.57, 43631.90, 0.00, 0.00, 0.000, 0.000, 0.000, 14:54:16.855
126, 28609.40, -28034.45, 40878.14, 12911.69, 4078.37, 43519.56, 0.00, 0.00, 0.000, 0.000, 0.000, 14:54:16.859
127, 28602.92, -28070.24, 40871.53, 12899.55, 4063.01, 43254.11, 0.00, 0.00, 0.000, 0.000, 0.000, 14:54:16.863
128, 28605.07, -28066.41, 40873.20, 12908.42, 4067.32, 43327.92, 0.00, 0.00, 0.018, -0.018, 1.042, 14:54:16.867
129, 28607.55, -28033.74, 40880.63, 12919.78, 4080.00, 43616.50, 0.00, 0.00, 0.000, 0.000, 0.000, 14:54:16.872
130, 28609.14, -28032.84, 40879.71, 12914.59, 4082.68, 43566.77, 0.00, 0.00, 0.000, 0.000, 0.000, 14:54:16.876
131, 28602.10, -28065.01, 40867.79, 12900.02, 4072.67, 43286.43, 0.00, 0.00, 0.000, 0.000, 0.000, 14:54:16.879
132, 28609.43, -28069.14, 40869.94, 12901.90, 4078.12, 43283.55, 0.00, 0.00, 0.000, 0.000, 0.000, 14:54:16.883
133, 28613.12, -28033.36, 40880.89, 12919.08, 4090.53, 43578.88, 0.00, 0.00, 0.000, 0.000, 0.000, 14:54:16.887
134, 28617.90, -28021.29, 40882.90, 12921.99, 4093.48, 43596.72, 0.00, 0.00, 0.000, 0.000, 0.000, 14:54:16.892
135, 28614.32, -28055.28, 40871.64, 12903.13, 4079.46, 43322.39, 0.00, 0.00, 0.000, 0.000, 0.000, 14:54:16.895
136, 28609.94, -28068.60, 40871.77, 12902.99, 4076.38, 43251.70, 0.00, 0.00, 0.000, 0.000, 0.000, 14:54:16.900
137, 28608.35, -28037.58, 40880.98, 12916.98, 4086.03, 43537.96, 0.00, 0.00, 0.000, 0.000, 0.000, 14:54:16.905
138, 28612.58, -28021.08, 40883.35, 12918.73, 4090.95, 43626.47, 0.00, 0.00, 0.014, -0.016, 1.042, 14:54:16.908
139, 28612.20, -28048.44, 40873.94, 12906.10, 4081.27, 43373.67, 0.00, 0.00, 0.000, 0.000, 0.000, 14:54:16.913
140, 28609.88, -28069.92, 40867.39, 12899.95, 4075.71, 43239.38, 0.00, 0.00, 0.000, 0.000, 0.000, 14:54:16.916
141, 28607.06, -28042.86, 40872.98, 12910.39, 4086.99, 43489.81, 0.00, 0.00, 0.000, 0.000, 0.000, 14:54:16.920
142, 28611.15, -28016.05, 40876.94, 12916.49, 4099.60, 43648.66, 0.00, 0.00, 0.000, 0.000, 0.000, 14:54:16.923
143, 28613.50, -28037.40, 40869.22, 12905.07, 4096.56, 43430.09, 0.00, 0.00, 0.000, 0.000, 0.000, 14:54:16.927
144, 28610.39, -28065.95, 40860.02, 12894.12, 4086.82, 43227.11, 0.00, 0.00, 0.000, 0.000, 0.000, 14:54:16.931
145, 28611.10, -28047.84, 40865.56, 12903.48, 4089.39, 43432.59, 0.00, 0.00, 0.000, 0.000, 0.000, 14:54:16.935
146, 28619.66, -28018.29, 40873.76, 12914.12, 4098.84, 43647.43, 0.00, 0.00, 0.000, 0.000, 0.000, 14:54:16.940
147, 28620.92, -28033.94, 40871.37, 12906.48, 4094.66, 43482.84, 0.00, 0.00, 0.000, 0.000, 0.000, 14:54:16.943
148, 28611.08, -28068.36, 40867.23, 12892.87, 4079.10, 43239.58, 0.00, 0.00, 0.016, -0.014, 1.038, 14:54:16.947
149, 28605.85, -28059.51, 40873.67, 12899.73, 4075.95, 43370.68, 0.00, 0.00, 0.000, 0.000, 0.000, 14:54:16.951
150, 28616.63, -28024.77, 40886.46, 12918.88, 4089.45, 43637.36, 0.00, 0.00, 0.000, 0.000, 0.000, 14:54:16.955
151, 28614.50, -28028.44, 40885.21, 12914.90, 4086.19, 43534.51, 0.00, 0.00, 0.000, 0.000, 0.000, 14:54:16.960
152, 28607.88, -28060.65, 40875.48, 12905.67, 4074.95, 43264.75, 0.00, 0.00, 0.000, 0.000, 0.000, 14:54:16.963
153, 28605.61, -28061.88, 40876.73, 12907.24, 4074.14, 43327.65, 0.00, 0.00, 0.000, 0.000, 0.000, 14:54:16.967
154, 28605.85, -28033.24, 40884.40, 12915.66, 4085.65, 43618.13, 0.00, 0.00, 0.000, 0.000, 0.000, 14:54:16.973
155, 28612.00, -28027.66, 40885.07, 12916.09, 4092.40, 43587.91, 0.00, 0.00, 0.000, 0.000, 0.000, 14:54:16.975
156, 28611.66, -28059.57, 40876.06, 12903.50, 4082.75, 43294.57, 0.00, 0.00, 0.000, 0.000, 0.000, 14:54:16.979
157, 28608.31, -28072.05, 40869.96, 12899.44, 4074.90, 43281.16, 0.00, 0.00, 0.000, 0.000, 0.000, 14:54:16.983
158, 28608.73, -28038.63, 40877.79, 12915.37, 4083.17, 43577.74, 0.00, 0.00, 0.020, -0.018, 1.036, 14:54:16.987
159, 28614.32, -28026.38, 40880.11, 12919.53, 4088.33, 43608.50, 0.00, 0.00, 0.000, 0.000, 0.000, 14:54:16.992
160, 28613.09, -28055.80, 40872.18, 12907.89, 4079.06, 43337.13, 0.00, 0.00, 0.000, 0.000, 0.000, 14:54:16.996
161, 28609.18, -28073.32, 40867.84, 12901.96, 4072.11, 43256.91, 0.00, 0.00, 0.000, 0.000, 0.000, 14:54:17.001
162, 28611.53, -28044.08, 40873.76, 12905.76, 4075.13, 43533.84, 0.00, 0.00, 0.000, 0.000, 0.000, 14:54:17.003
163, 28624.02, -28025.64, 40877.00, 12903.80, 4081.85, 43635.19, 0.00, 0.00, 0.000, 0.000, 0.000, 14:54:17.007
164, 28624.09, -28048.96, 40874.61, 12899.84, 4082.26, 43392.07, 0.00, 0.00, 0.000, 0.000, 0.000, 14:54:17.012
165, 28607.91, -28073.16, 40870.70, 12895.53, 4075.30, 43241.59, 0.00, 0.00, 0.000, 0.000, 0.000, 14:54:17.016
166, 28608.09, -28052.60, 40879.39, 12900.40, 4079.73, 43486.52, 0.00, 0.00, 0.000, 0.000, 0.000, 14:54:17.019
167, 28621.81, -28028.17, 40888.07, 12908.89, 4090.61, 43647.99, 0.00, 0.00, 0.000, 0.000, 0.000, 14:54:17.023
168, 28618.75, -28049.90, 40880.91, 12901.38, 4083.64, 43442.92, 0.00, 0.00, 0.016, -0.018, 1.040, 14:54:17.028
169, 28616.29, -28082.11, 40873.20, 12891.70, 4074.39, 43238.89, 0.00, 0.00, 0.000, 0.000, 0.000, 14:54:17.031
170, 28617.92, -28066.41, 40880.02, 12900.29, 4078.81, 43431.41, 0.00, 0.00, 0.000, 0.000, 0.000, 14:54:17.035
171, 28628.83, -28034.18, 40895.27, 12916.40, 4093.41, 43654.14, 0.00, 0.00, 0.000, 0.000, 0.000, 14:54:17.040
172, 28635.45, -28045.20, 40894.48, 12912.98, 4091.44, 43493.81, 0.00, 0.00, 0.000, 0.000, 0.000, 14:54:17.043
173, 28633.88, -28082.96, 40884.31, 12898.95, 4076.40, 43236.86, 0.00, 0.00, 0.000, 0.000, 0.000, 14:54:17.047
174, 28630.46, -28074.17, 40885.83, 12902.63, 4077.36, 43365.69, 0.00, 0.00, 0.000, 0.000, 0.000, 14:54:17.052
175, 28628.58, -28035.63, 40894.39, 12914.44, 4092.20, 43635.07, 0.00, 0.00, 0.000, 0.000, 0.000, 14:54:17.056
176, 28631.89, -28040.53, 40891.91, 12905.63, 4091.58, 43533.78, 0.00, 0.00, 0.000, 0.000, 0.000, 14:54:17.059
177, 28630.82, -28074.88, 40882.99, 12894.81, 4082.41, 43261.31, 0.00, 0.00, 0.000, 0.000, 0.000, 14:54:17.065
178, 28626.62, -28080.83, 40887.80, 12902.14, 4081.07, 43312.27, 0.00, 0.00, 0.014, -0.014, 1.038, 14:54:17.068
179, 28628.11, -28051.71, 40897.72, 12916.22, 4087.13, 43605.05, 0.00, 0.00, 0.000, 0.000, 0.000, 14:54:17.071
180, 28628.85, -28050.12, 40895.22, 12911.53, 4086.59, 43576.94, 0.00, 0.00, 0.000, 0.000, 0.000, 14:54:17.078
181, 28628.05, -28081.12, 40886.26, 12896.42, 4076.49, 43291.55, 0.00, 0.00, 0.000, 0.000, 0.000, 14:54:17.081
182, 28622.62, -28090.38, 40885.90, 12893.92, 4070.79, 43277.65, 0.00, 0.00, 0.000, 0.000, 0.000, 14:54:17.084
183, 28624.45, -28058.12, 40895.60, 12907.66, 4080.20, 43562.74, 0.00, 0.00, 0.000, 0.000, 0.000, 14:54:17.088
184, 28625.63, -28043.64, 40897.68, 12910.34, 4081.70, 43611.74, 0.00, 0.00, 0.000, 0.000, 0.000, 14:54:17.092
185, 28622.19, -28073.61, 40883.55, 12894.90, 4069.94, 43339.43, 0.00, 0.00, 0.000, 0.000, 0.000, 14:54:17.096
186, 28624.40, -28092.48, 40878.66, 12889.85, 4069.18, 43247.11, 0.00, 0.00, 0.000, 0.000, 0.000, 14:54:17.099
187, 28625.34, -28064.20, 40888.67, 12904.85, 4082.55, 43513.70, 0.00, 0.00, 0.000, 0.000, 0.000, 14:54:17.103
188, 28628.09, -28043.97, 40893.16, 12909.58, 4092.51, 43632.01, 0.00, 0.00, 0.018, -0.014, 1.044, 14:54:17.107
189, 28624.40, -28068.52, 40884.58, 12900.02, 4082.97, 43395.22, 0.00, 0.00, 0.000, 0.000, 0.000, 14:54:17.111
190, 28622.84, -28094.24, 40878.30, 12898.34, 4074.86, 43229.75, 0.00, 0.00, 0.000, 0.000, 0.000, 14:54:17.114
191, 28623.55, -28070.39, 40887.22, 12913.25, 4082.28, 43468.53, 0.00, 0.00, 0.000, 0.000, 0.000, 14:54:17.118
192, 28629.70, -28042.81, 40896.38, 12921.95, 4093.52, 43652.64, 0.00, 0.00, 0.000, 0.000, 0.000, 14:54:17.123
193, 28631.73, -28060.09, 40894.77, 12915.17, 4087.49, 43450.56, 0.00, 0.00, 0.000, 0.000, 0.000, 14:54:17.128
194, 28626.50, -28089.93, 40885.96, 12905.61, 4074.81, 43232.47, 0.00, 0.00, 0.000, 0.000, 0.000, 14:54:17.131
195, 28623.55, -28078.17, 40889.52, 12907.75, 4075.82, 43419.98, 0.00, 0.00, 0.000, 0.000, 0.000, 14:54:17.135
196, 28629.14, -28043.73, 40901.07, 12918.84, 4089.99, 43649.29, 0.00, 0.00, 0.000, 0.000, 0.000, 14:54:17.140
197, 28631.85, -28051.15, 40899.87, 12914.99, 4090.12, 43504.70, 0.00, 0.00, 0.000, 0.000, 0.000, 14:54:17.144
198, 28629.70, -28082.35, 40893.48, 12906.03, 4084.04, 43250.13, 0.00, 0.00, 0.020, -0.018, 1.040, 14:54:17.147
199, 28627.73, -28077.57, 40895.44, 12908.09, 4084.80, 43366.70, 0.00, 0.00, 0.000, 0.000, 0.000, 14:54:17.151
200, 28629.54, -28047.10, 40908.30, 12916.98, 4090.70, 43628.57, 0.00, 0.00, 0.000, 0.000, 0.000, 14:54:17.156
201, 28630.66, -28049.07, 40908.14, 12914.97, 4089.09, 43546.88, 0.00, 0.00, 0.000, 0.000, 0.000, 14:54:17.161
202, 28631.20, -28084.65, 40896.32, 12901.27, 4074.68, 43265.36, 0.00, 0.00, 0.000, 0.000, 0.000, 14:54:17.165
203, 28626.86, -28086.11, 40893.14, 12904.44, 4072.06, 43304.38, 0.00, 0.00, 0.000, 0.000, 0.000, 14:54:17.167
204, 28628.02, -28049.47, 40901.10, 12918.46, 4082.01, 43601.99, 0.00, 0.00, 0.000, 0.000, 0.000, 14:54:17.171
205, 28632.61, -28041.92, 40902.59, 12916.27, 4086.46, 43586.73, 0.00, 0.00, 0.000, 0.000, 0.000, 14:54:17.174
206, 28629.52, -28076.43, 40891.42, 12899.84, 4075.15, 43304.43, 0.00, 0.00, 0.000, 0.000, 0.000, 14:54:17.179
207, 28625.41, -28089.68, 40887.13, 12897.22, 4070.99, 43264.13, 0.00, 0.00, 0.000, 0.000, 0.000, 14:54:17.184
208, 28623.89, -28058.52, 40894.62, 12909.50, 4078.48, 43550.43, 0.00, 0.00, 0.018, -0.018, 1.044, 14:54:17.188
209, 28624.16, -28046.68, 40895.38, 12909.54, 4079.73, 43608.34, 0.00, 0.00, 0.000, 0.000, 0.000, 14:54:17.191
210, 28622.39, -28076.12, 40885.23, 12898.01, 4072.17, 43343.63, 0.00, 0.00, 0.000, 0.000, 0.000, 14:54:17.194
211, 28619.44, -28096.72, 40881.27, 12893.25, 4066.07, 43233.48, 0.00, 0.00, 0.000, 0.000, 0.000, 14:54:17.199
212, 28615.08, -28069.86, 40889.88, 12902.97, 4073.96, 43505.05, 0.00, 0.00, 0.000, 0.000, 0.000, 14:54:17.203
213, 28618.32, -28047.73, 40895.55, 12908.36, 4082.50, 43635.52, 0.00, 0.00, 0.000, 0.000, 0.000, 14:54:17.207
214, 28620.20, -28075.82, 40885.65, 12895.03, 4073.81, 43391.57, 0.00, 0.00, 0.000, 0.000, 0.000, 14:54:17.211
215, 28620.11, -28100.50, 40877.05, 12882.52, 4065.16, 43212.67, 0.00, 0.00, 0.000, 0.000, 0.000, 14:54:17.215
216, 28622.62, -28073.72, 40884.38, 12892.04, 4074.30, 43443.92, 0.00, 0.00, 0.000, 0.000, 0.000, 14:54:17.222
217, 28622.23, -28045.72, 40887.06, 12898.25, 4081.52, 43625.95, 0.00, 0.00, 0.000, 0.000, 0.000, 14:54:17.225
218, 28627.17, -28061.63, 40878.34, 12885.78, 4079.37, 43431.43, 0.00, 0.00, 0.000, 0.000, 0.000, 14:54:17.227
219, 28628.87, -28089.15, 40869.05, 12876.37, 4075.39, 43208.85, 0.00, 0.00, 0.018, -0.020, 1.042, 14:54:17.233
220, 28624.31, -28075.58, 40873.58, 12884.55, 4080.38, 43392.09, 0.00, 0.00, 0.000, 0.000, 0.000, 14:54:17.235
221, 28622.75, -28042.14, 40883.64, 12899.93, 4091.62, 43634.14, 0.00, 0.00, 0.000, 0.000, 0.000, 14:54:17.240
222, 28621.47, -28051.28, 40882.84, 12900.46, 4088.29, 43496.31, 0.00, 0.00, 0.000, 0.000, 0.000, 14:54:17.243
223, 28620.33, -28087.09, 40875.64, 12889.89, 4074.07, 43235.20, 0.00, 0.00, 0.000, 0.000, 0.000, 14:54:17.247
224, 28615.44, -28084.32, 40876.58, 12894.16, 4072.02, 43342.40, 0.00, 0.00, 0.000, 0.000, 0.000, 14:54:17.250
225, 28620.02, -28049.02, 40884.22, 12905.16, 4083.24, 43611.02, 0.00, 0.00, 0.000, 0.000, 0.000, 14:54:17.254
226, 28623.17, -28047.97, 40882.14, 12901.83, 4083.40, 43538.02, 0.00, 0.00, 0.000, 0.000, 0.000, 14:54:17.259
227, 28622.59, -28078.57, 40869.96, 12890.16, 4074.95, 43253.57, 0.00, 0.00, 0.000, 0.000, 0.000, 14:54:17.262
228, 28621.70, -28083.31, 40870.61, 12892.28, 4075.86, 43284.18, 0.00, 0.00, 0.000, 0.000, 0.000, 14:54:17.267
229, 28623.26, -28049.87, 40879.35, 12906.05, 4089.16, 43584.31, 0.00, 0.00, 0.016, -0.024, 1.036, 14:54:17.272
230, 28627.24, -28040.64, 40879.89, 12906.05, 4093.74, 43576.16, 0.00, 0.00, 0.000, 0.000, 0.000, 14:54:17.275
231, 28624.31, -28074.53, 40868.18, 12891.37, 4081.90, 43289.38, 0.00, 0.00, 0.000, 0.000, 0.000, 14:54:17.279
232, 28619.93, -28091.60, 40863.10, 12887.19, 4073.69, 43243.92, 0.00, 0.00, 0.000, 0.000, 0.000, 14:54:17.283
233, 28617.76, -28058.84, 40874.05, 12902.12, 4078.95, 43540.28, 0.00, 0.00, 0.000, 0.000, 0.000, 14:54:17.286
234, 28621.90, -28038.99, 40881.72, 12912.33, 4084.31, 43611.27, 0.00, 0.00, 0.000, 0.000, 0.000, 14:54:17.290
235, 28618.61, -28061.74, 40877.23, 12905.14, 4075.75, 43354.47, 0.00, 0.00, 0.000, 0.000, 0.000, 14:54:17.295
236, 28612.76, -28079.58, 40876.02, 12903.17, 4069.56, 43237.26, 0.00, 0.00, 0.000, 0.000, 0.000, 14:54:17.299
237, 28611.21, -28057.38, 40881.36, 12910.95, 4076.87, 43497.32, 0.00, 0.00, 0.000, 0.000, 0.000, 14:54:17.304
238, 28623.62, -28035.03, 40887.66, 12917.03, 4090.15, 43638.16, 0.00, 0.00, 0.000, 0.000, 0.000, 14:54:17.307
239, 28621.97, -28059.11, 40884.07, 12906.28, 4085.05, 43410.80, 0.00, 0.00, 0.018, -0.022, 1.044, 14:54:17.312
240, 28616.74, -28086.31, 40879.82, 12896.71, 4075.33, 43221.86, 0.00, 0.00, 0.000, 0.000, 0.000, 14:54:17.315
241, 28618.41, -28065.27, 40884.96, 12905.43, 4080.00, 43435.59, 0.00, 0.00, 0.000, 0.000, 0.000, 14:54:17.320
242, 28620.29, -28038.05, 40890.41, 12913.85, 4088.07, 43637.76, 0.00, 0.00, 0.000, 0.000, 0.000, 14:54:17.324
243, 28624.31, -28049.96, 40886.28, 12906.70, 4087.62, 43462.03, 0.00, 0.00, 0.000, 0.000, 0.000, 14:54:17.329
244, 28618.12, -28079.29, 40875.84, 12898.05, 4076.76, 43227.02, 0.00, 0.00, 0.000, 0.000, 0.000, 14:54:17.332
245, 28611.42, -28065.83, 40877.34, 12904.02, 4075.15, 43391.84, 0.00, 0.00, 0.000, 0.000, 0.000, 14:54:17.335
246, 28613.99, -28033.02, 40887.89, 12916.25, 4086.70, 43631.97, 0.00, 0.00, 0.000, 0.000, 0.000, 14:54:17.339
247, 28614.88, -28044.78, 40882.66, 12909.56, 4082.46, 43507.60, 0.00, 0.00, 0.000, 0.000, 0.000, 14:54:17.343
248, 28614.46, -28078.24, 40874.30, 12899.28, 4071.21, 43242.53, 0.00, 0.00, 0.000, 0.000, 0.000, 14:54:17.347
249, 28613.23, -28077.10, 40881.99, 12902.30, 4067.57, 43334.18, 0.00, 0.00, 0.018, -0.022, 1.048, 14:54:17.350
250, 28616.67, -28043.26, 40890.57, 12911.60, 4078.59, 43611.65, 0.00, 0.00, 0.000, 0.000, 0.000, 14:54:17.355
251, 28618.01, -28039.39, 40887.29, 12907.73, 4080.94, 43549.02, 0.00, 0.00, 0.000, 0.000, 0.000, 14:54:17.359
252, 28617.63, -28069.12, 40876.06, 12895.30, 4073.94, 43273.82, 0.00, 0.00, 0.000, 0.000, 0.000, 14:54:17.362
253, 28618.61, -28071.80, 40877.41, 12897.25, 4074.86, 43284.42, 0.00, 0.00, 0.000, 0.000, 0.000, 14:54:17.367
